[ Experiment Parameters ]
Experiment Description= MnO various survey tests 
Number_of_Regions_in_Experiment= 7 

Original_File_name= c:\alexesca\data\alex\survey01.xps 
Instrument= ESCA-West
Date= 07-31-1997
Time=  12:51:50

[ Region 1 Parameters ]
Region_Description = survey                             
BEcenter(eV) = 500.000000
BEwidth(eV) = 1000.000000
BEstep(eV) = 0.898438
Dwell_Time(sec) = 1.500000
N_o_scans = 1  
N_o_Channels = 1113  
Excitation_Energy = 0.000000  
Scan_mode = 0  (DITHERED)

[ Region 2 Parameters ]
Region_Description = survey   0-500                       
BEcenter(eV) = 250.000000
BEwidth(eV) = 500.000000
BEstep(eV) = 0.898438
Dwell_Time(sec) = 1.500000
N_o_scans = 1  
N_o_Channels = 543  
Excitation_Energy = -680564733843230621613262695881913663488.000000  
Scan_mode = 0  (DITHERED)

[ Region 3 Parameters ]
Region_Description = survey   500-1000                          
BEcenter(eV) = 750.000000
BEwidth(eV) = 500.000000
BEstep(eV) = 0.898438
Dwell_Time(sec) = 1.500000
N_o_scans = 1  
N_o_Channels = 543  
Excitation_Energy = -680564733843230923844717599539207340032.000000  
Scan_mode = 0  (DITHERED)

[ Region 4 Parameters ]
Region_Description = survey   0-250                       
BEcenter(eV) = 125.000000
BEwidth(eV) = 250.000000
BEstep(eV) = 0.898438
Dwell_Time(sec) = 1.500000
N_o_scans = 1  
N_o_Channels = 272  
Excitation_Energy = -686185425614892760012547166565209997312.000000  
Scan_mode = 0  (DITHERED)

[ Region 5 Parameters ]
Region_Description = survey  250 -500                      
BEcenter(eV) = 375.000000
BEwidth(eV) = 250.000000
BEstep(eV) = 0.898438
Dwell_Time(sec) = 1.500000
N_o_scans = 1  
N_o_Channels = 272  
Excitation_Energy = -680564733843230621613262695881913663488.000000  
Scan_mode = 0  (DITHERED)

[ Region 6 Parameters ]
Region_Description = survey  500-750                      
BEcenter(eV) = 625.000000
BEwidth(eV) = 250.000000
BEstep(eV) = 0.898438
Dwell_Time(sec) = 1.500000
N_o_scans = 1  
N_o_Channels = 272  
Excitation_Energy = -680564733843230621613262695881913663488.000000  
Scan_mode = 0  (DITHERED)

[ Region 7 Parameters ]
Region_Description = survey  750-1000                   
BEcenter(eV) = 875.000000
BEwidth(eV) = 250.000000
BEstep(eV) = 0.898438
Dwell_Time(sec) = 1.500000
N_o_scans = 1  
N_o_Channels = 272  
Excitation_Energy = -680564733843230621613262695881913663488.000000  
Scan_mode = 0  (DITHERED)

[ Region 1 Curve ]
BEcenter= 500.000 
BEwidth= -998.828
Excitation= 1486.600
Time_p_channel= 15.360  
Size= 1113
999.414  4.73400000e+03 
998.516  4.53100000e+03 
997.618  4.78300000e+03 
996.719  4.73100000e+03 
995.821  4.62900000e+03 
994.923  4.62200000e+03 
994.025  4.64400000e+03 
993.126  4.66200000e+03 
992.228  4.55400000e+03 
991.330  4.68600000e+03 
990.432  4.60200000e+03 
989.534  4.69900000e+03 
988.635  4.50200000e+03 
987.737  4.44600000e+03 
986.839  4.51900000e+03 
985.941  4.61200000e+03 
985.042  4.49900000e+03 
984.144  4.52300000e+03 
983.246  4.57700000e+03 
982.348  4.56300000e+03 
981.450  4.49200000e+03 
980.551  4.41000000e+03 
979.653  4.58700000e+03 
978.755  4.45400000e+03 
977.857  4.44700000e+03 
976.958  4.42600000e+03 
976.060  4.51300000e+03 
975.162  4.34300000e+03 
974.264  4.34800000e+03 
973.365  4.18900000e+03 
972.467  4.38400000e+03 
971.569  4.40200000e+03 
970.671  4.23500000e+03 
969.773  4.24000000e+03 
968.874  4.18500000e+03 
967.976  4.23000000e+03 
967.078  4.09400000e+03 
966.180  4.15100000e+03 
965.281  4.20200000e+03 
964.383  4.18600000e+03 
963.485  4.05000000e+03 
962.587  4.14700000e+03 
961.689  4.14500000e+03 
960.790  4.20100000e+03 
959.892  4.15600000e+03 
958.994  4.17800000e+03 
958.096  4.22300000e+03 
957.197  4.12800000e+03 
956.299  4.31100000e+03 
955.401  4.10000000e+03 
954.503  4.21700000e+03 
953.604  4.09600000e+03 
952.706  4.01400000e+03 
951.808  4.02400000e+03 
950.910  3.89000000e+03 
950.012  3.75600000e+03 
949.113  3.78400000e+03 
948.215  3.70400000e+03 
947.317  3.67300000e+03 
946.419  3.74000000e+03 
945.520  3.61800000e+03 
944.622  3.52500000e+03 
943.724  3.54700000e+03 
942.826  3.58300000e+03 
941.928  3.49000000e+03 
941.029  3.57900000e+03 
940.131  3.53800000e+03 
939.233  3.60000000e+03 
938.335  3.50300000e+03 
937.436  3.55900000e+03 
936.538  3.46600000e+03 
935.640  3.47600000e+03 
934.742  3.45800000e+03 
933.844  3.51300000e+03 
932.945  3.38800000e+03 
932.047  3.46500000e+03 
931.149  3.43400000e+03 
930.251  3.49400000e+03 
929.352  3.41900000e+03 
928.454  3.40300000e+03 
927.556  3.45400000e+03 
926.658  3.48700000e+03 
925.759  3.36400000e+03 
924.861  3.39800000e+03 
923.963  3.31600000e+03 
923.065  3.26100000e+03 
922.167  3.46100000e+03 
921.268  3.19800000e+03 
920.370  3.36000000e+03 
919.472  3.31100000e+03 
918.574  3.24300000e+03 
917.675  3.35000000e+03 
916.777  3.32200000e+03 
915.879  3.27700000e+03 
914.981  3.28500000e+03 
914.083  3.27600000e+03 
913.184  3.21100000e+03 
912.286  3.23900000e+03 
911.388  3.25700000e+03 
910.490  3.23400000e+03 
909.591  3.19000000e+03 
908.693  3.16700000e+03 
907.795  3.19900000e+03 
906.897  3.17300000e+03 
905.998  3.20400000e+03 
905.100  3.19200000e+03 
904.202  3.14900000e+03 
903.304  3.15000000e+03 
902.406  3.09700000e+03 
901.507  3.09500000e+03 
900.609  3.12100000e+03 
899.711  3.12100000e+03 
898.813  3.18900000e+03 
897.914  3.04700000e+03 
897.016  3.02300000e+03 
896.118  3.14000000e+03 
895.220  3.07700000e+03 
894.322  3.09800000e+03 
893.423  3.02900000e+03 
892.525  3.05200000e+03 
891.627  3.09400000e+03 
890.729  2.90500000e+03 
889.830  3.05800000e+03 
888.932  3.11200000e+03 
888.034  3.05200000e+03 
887.136  2.93500000e+03 
886.237  3.08800000e+03 
885.339  3.12000000e+03 
884.441  2.96400000e+03 
883.543  3.15500000e+03 
882.645  2.98800000e+03 
881.746  3.05600000e+03 
880.848  3.02500000e+03 
879.950  3.04400000e+03 
879.052  2.92600000e+03 
878.153  3.03300000e+03 
877.255  2.91400000e+03 
876.357  2.90600000e+03 
875.459  2.88700000e+03 
874.561  2.93300000e+03 
873.662  2.89400000e+03 
872.764  2.76100000e+03 
871.866  2.86900000e+03 
870.968  2.98900000e+03 
870.069  2.91900000e+03 
869.171  2.95600000e+03 
868.273  2.78100000e+03 
867.375  2.82000000e+03 
866.477  2.90000000e+03 
865.578  2.86600000e+03 
864.680  2.89000000e+03 
863.782  2.86800000e+03 
862.884  2.90200000e+03 
861.985  2.84100000e+03 
861.087  2.77900000e+03 
860.189  2.80700000e+03 
859.291  2.76500000e+03 
858.392  2.79100000e+03 
857.494  2.85900000e+03 
856.596  2.86300000e+03 
855.698  2.77800000e+03 
854.800  2.94100000e+03 
853.901  2.78500000e+03 
853.003  2.85000000e+03 
852.105  2.85400000e+03 
851.207  2.91000000e+03 
850.308  2.80500000e+03 
849.410  2.78300000e+03 
848.512  2.74300000e+03 
847.614  2.84700000e+03 
846.716  2.76600000e+03 
845.817  2.73400000e+03 
844.919  2.70600000e+03 
844.021  2.81300000e+03 
843.123  2.73500000e+03 
842.224  2.75700000e+03 
841.326  2.79700000e+03 
840.428  2.77200000e+03 
839.530  2.73200000e+03 
838.631  2.78300000e+03 
837.733  2.79900000e+03 
836.835  2.77500000e+03 
835.937  2.74200000e+03 
835.039  2.72300000e+03 
834.140  2.78400000e+03 
833.242  2.71400000e+03 
832.344  2.73900000e+03 
831.446  2.86700000e+03 
830.547  2.68500000e+03 
829.649  2.64100000e+03 
828.751  2.66000000e+03 
827.853  2.76000000e+03 
826.955  2.81600000e+03 
826.056  2.76000000e+03 
825.158  2.63500000e+03 
824.260  2.67500000e+03 
823.362  2.65800000e+03 
822.463  2.63100000e+03 
821.565  2.68000000e+03 
820.667  2.75300000e+03 
819.769  2.65400000e+03 
818.870  2.63800000e+03 
817.972  2.64200000e+03 
817.074  2.72800000e+03 
816.176  2.67500000e+03 
815.278  2.64800000e+03 
814.379  2.55800000e+03 
813.481  2.61900000e+03 
812.583  2.64100000e+03 
811.685  2.59800000e+03 
810.786  2.53100000e+03 
809.888  2.59600000e+03 
808.990  2.59700000e+03 
808.092  2.69000000e+03 
807.194  2.53300000e+03 
806.295  2.65800000e+03 
805.397  2.51000000e+03 
804.499  2.54500000e+03 
803.601  2.57800000e+03 
802.702  2.59000000e+03 
801.804  2.51200000e+03 
800.906  2.50600000e+03 
800.008  2.61900000e+03 
799.110  2.62100000e+03 
798.211  2.49700000e+03 
797.313  2.63900000e+03 
796.415  2.53100000e+03 
795.517  2.62300000e+03 
794.618  2.52600000e+03 
793.720  2.48100000e+03 
792.822  2.60600000e+03 
791.924  2.61200000e+03 
791.025  2.50100000e+03 
790.127  2.48900000e+03 
789.229  2.43400000e+03 
788.331  2.58600000e+03 
787.433  2.56500000e+03 
786.534  2.48300000e+03 
785.636  2.51000000e+03 
784.738  2.46300000e+03 
783.840  2.48500000e+03 
782.941  2.44400000e+03 
782.043  2.53200000e+03 
781.145  2.53000000e+03 
780.247  2.44300000e+03 
779.349  2.53300000e+03 
778.450  2.46600000e+03 
777.552  2.49800000e+03 
776.654  2.51900000e+03 
775.756  2.53500000e+03 
774.857  2.51700000e+03 
773.959  2.47300000e+03 
773.061  2.44400000e+03 
772.163  2.46200000e+03 
771.264  2.50100000e+03 
770.366  2.49200000e+03 
769.468  2.50500000e+03 
768.570  2.47800000e+03 
767.672  2.32900000e+03 
766.773  2.48800000e+03 
765.875  2.39600000e+03 
764.977  2.52800000e+03 
764.079  2.47300000e+03 
763.180  2.41000000e+03 
762.282  2.39600000e+03 
761.384  2.43000000e+03 
760.486  2.49400000e+03 
759.588  2.43200000e+03 
758.689  2.47400000e+03 
757.791  2.39200000e+03 
756.893  2.45100000e+03 
755.995  2.40100000e+03 
755.096  2.40700000e+03 
754.198  2.51200000e+03 
753.300  2.43600000e+03 
752.402  2.38900000e+03 
751.503  2.44300000e+03 
750.605  2.32900000e+03 
749.707  2.28500000e+03 
748.809  2.29500000e+03 
747.911  2.32300000e+03 
747.012  2.31300000e+03 
746.114  2.33900000e+03 
745.216  2.25800000e+03 
744.318  2.31100000e+03 
743.419  2.23600000e+03 
742.521  2.27400000e+03 
741.623  2.23000000e+03 
740.725  2.24600000e+03 
739.827  2.27800000e+03 
738.928  2.21800000e+03 
738.030  2.26800000e+03 
737.132  2.26500000e+03 
736.234  2.25400000e+03 
735.335  2.22200000e+03 
734.437  2.21600000e+03 
733.539  2.18400000e+03 
732.641  2.22000000e+03 
731.742  2.26700000e+03 
730.844  2.26600000e+03 
729.946  2.17800000e+03 
729.048  2.20200000e+03 
728.150  2.32900000e+03 
727.251  2.23600000e+03 
726.353  2.23400000e+03 
725.455  2.24000000e+03 
724.557  2.29100000e+03 
723.658  2.30500000e+03 
722.760  2.20100000e+03 
721.862  2.21200000e+03 
720.964  2.25700000e+03 
720.066  2.18700000e+03 
719.167  2.17100000e+03 
718.269  2.12100000e+03 
717.371  2.23600000e+03 
716.473  2.13500000e+03 
715.574  2.21100000e+03 
714.676  2.21600000e+03 
713.778  2.14300000e+03 
712.880  2.19600000e+03 
711.982  2.18900000e+03 
711.083  2.12300000e+03 
710.185  2.20500000e+03 
709.287  2.16200000e+03 
708.389  2.11400000e+03 
707.490  2.05100000e+03 
706.592  2.10400000e+03 
705.694  2.07700000e+03 
704.796  2.13500000e+03 
703.897  2.16000000e+03 
702.999  2.07500000e+03 
702.101  2.07700000e+03 
701.203  2.09500000e+03 
700.305  2.06600000e+03 
699.406  2.07800000e+03 
698.508  2.14500000e+03 
697.610  1.99500000e+03 
696.712  2.03600000e+03 
695.813  2.10400000e+03 
694.915  2.05200000e+03 
694.017  2.04200000e+03 
693.119  2.13000000e+03 
692.221  2.06900000e+03 
691.322  2.03100000e+03 
690.424  1.99700000e+03 
689.526  2.03600000e+03 
688.628  1.99200000e+03 
687.729  1.95500000e+03 
686.831  1.98000000e+03 
685.933  1.99500000e+03 
685.035  1.97600000e+03 
684.136  2.03100000e+03 
683.238  1.93300000e+03 
682.340  1.95200000e+03 
681.442  1.97100000e+03 
680.544  2.00800000e+03 
679.645  1.97000000e+03 
678.747  1.92500000e+03 
677.849  1.94700000e+03 
676.951  1.94200000e+03 
676.052  1.88100000e+03 
675.154  1.94200000e+03 
674.256  1.87600000e+03 
673.358  1.89500000e+03 
672.460  1.89400000e+03 
671.561  1.90200000e+03 
670.663  1.80700000e+03 
669.765  1.91900000e+03 
668.867  1.91900000e+03 
667.968  1.74200000e+03 
667.070  1.83500000e+03 
666.172  1.78800000e+03 
665.274  1.86000000e+03 
664.375  1.78700000e+03 
663.477  1.77700000e+03 
662.579  1.74200000e+03 
661.681  1.85800000e+03 
660.783  1.86600000e+03 
659.884  1.70800000e+03 
658.986  1.70000000e+03 
658.088  1.75300000e+03 
657.190  1.68700000e+03 
656.291  1.71400000e+03 
655.393  1.69300000e+03 
654.495  1.67100000e+03 
653.597  1.66800000e+03 
652.699  1.59600000e+03 
651.800  1.68200000e+03 
650.902  1.62900000e+03 
650.004  1.64200000e+03 
649.106  1.67300000e+03 
648.207  1.54700000e+03 
647.309  1.49800000e+03 
646.411  1.52000000e+03 
645.513  1.59000000e+03 
644.615  1.53400000e+03 
643.716  1.50300000e+03 
642.818  1.47500000e+03 
641.920  1.54600000e+03 
641.022  1.65000000e+03 
640.123  1.76600000e+03 
639.225  1.66500000e+03 
638.327  1.46900000e+03 
637.429  1.40400000e+03 
636.530  1.29300000e+03 
635.632  1.31600000e+03 
634.734  1.29500000e+03 
633.836  1.33000000e+03 
632.938  1.39200000e+03 
632.039  1.35800000e+03 
631.141  1.49000000e+03 
630.243  1.56100000e+03 
629.345  1.76000000e+03 
628.446  1.90800000e+03 
627.548  1.58800000e+03 
626.650  1.23200000e+03 
625.752  1.08900000e+03 
624.854  1.04700000e+03 
623.955  1.00200000e+03 
623.057  1.05900000e+03 
622.159  1.04300000e+03 
621.261  1.08600000e+03 
620.362  1.05400000e+03 
619.464  1.04900000e+03 
618.566  1.08300000e+03 
617.668  1.08600000e+03 
616.769  1.11600000e+03 
615.871  1.05500000e+03 
614.973  1.12700000e+03 
614.075  1.03300000e+03 
613.177  1.06600000e+03 
612.278  1.06300000e+03 
611.380  1.06800000e+03 
610.482  1.05400000e+03 
609.584  1.10500000e+03 
608.685  1.05600000e+03 
607.787  1.05600000e+03 
606.889  1.02500000e+03 
605.991  1.08400000e+03 
605.093  1.08200000e+03 
604.194  1.08600000e+03 
603.296  1.08200000e+03 
602.398  1.07000000e+03 
601.500  1.08200000e+03 
600.601  1.04100000e+03 
599.703  1.10600000e+03 
598.805  1.15200000e+03 
597.907  1.09000000e+03 
597.008  1.11300000e+03 
596.110  1.03200000e+03 
595.212  1.15900000e+03 
594.314  1.08100000e+03 
593.416  1.11100000e+03 
592.517  1.01400000e+03 
591.619  1.08200000e+03 
590.721  1.03500000e+03 
589.823  1.08100000e+03 
588.924  1.05600000e+03 
588.026  1.06200000e+03 
587.128  1.07400000e+03 
586.230  1.09300000e+03 
585.332  1.09500000e+03 
584.433  1.07700000e+03 
583.535  1.09800000e+03 
582.637  1.11000000e+03 
581.739  9.71000000e+02 
580.840  1.08600000e+03 
579.942  1.09600000e+03 
579.044  1.07700000e+03 
578.146  1.04000000e+03 
577.247  1.09600000e+03 
576.349  1.05200000e+03 
575.451  1.06800000e+03 
574.553  1.04400000e+03 
573.655  1.11100000e+03 
572.756  1.09500000e+03 
571.858  1.10400000e+03 
570.960  1.06900000e+03 
570.062  1.11300000e+03 
569.163  1.07200000e+03 
568.265  1.02300000e+03 
567.367  1.06200000e+03 
566.469  1.07500000e+03 
565.571  1.07900000e+03 
564.672  1.12000000e+03 
563.774  1.08600000e+03 
562.876  1.09600000e+03 
561.978  1.01900000e+03 
561.079  1.11400000e+03 
560.181  1.05600000e+03 
559.283  9.94000000e+02 
558.385  1.06600000e+03 
557.487  1.04100000e+03 
556.588  1.06900000e+03 
555.690  1.04700000e+03 
554.792  1.05700000e+03 
553.894  1.03300000e+03 
552.995  1.05600000e+03 
552.097  1.07800000e+03 
551.199  1.03600000e+03 
550.301  1.11500000e+03 
549.402  1.05100000e+03 
548.504  1.06600000e+03 
547.606  1.04100000e+03 
546.708  1.09000000e+03 
545.810  1.04900000e+03 
544.911  1.09500000e+03 
544.013  1.14500000e+03 
543.115  1.09600000e+03 
542.217  1.09500000e+03 
541.318  1.04400000e+03 
540.420  1.07400000e+03 
539.522  9.74000000e+02 
538.624  1.00100000e+03 
537.726  9.37000000e+02 
536.827  8.86000000e+02 
535.929  9.61000000e+02 
535.031  9.19000000e+02 
534.133  9.18000000e+02 
533.234  8.66000000e+02 
532.336  7.74000000e+02 
531.438  7.84000000e+02 
530.540  7.16000000e+02 
529.641  6.89000000e+02 
528.743  6.94000000e+02 
527.845  6.56000000e+02 
526.947  6.60000000e+02 
526.049  6.41000000e+02 
525.150  6.91000000e+02 
524.252  9.63000000e+02 
523.354  1.74800000e+03 
522.456  2.55700000e+03 
521.557  2.47600000e+03 
520.659  1.79900000e+03 
519.761  1.61300000e+03 
518.863  9.36000000e+02 
517.965  5.36000000e+02 
517.066  4.96000000e+02 
516.168  5.10000000e+02 
515.270  4.96000000e+02 
514.372  5.23000000e+02 
513.473  4.68000000e+02 
512.575  4.84000000e+02 
511.677  5.28000000e+02 
510.779  4.89000000e+02 
509.880  5.34000000e+02 
508.982  5.21000000e+02 
508.084  4.45000000e+02 
507.186  4.94000000e+02 
506.288  5.09000000e+02 
505.389  5.00000000e+02 
504.491  4.90000000e+02 
503.593  5.52000000e+02 
502.695  5.13000000e+02 
501.796  5.04000000e+02 
500.898  4.56000000e+02 
500.000  4.76000000e+02 
499.102  5.13000000e+02 
498.204  4.77000000e+02 
497.305  4.93000000e+02 
496.407  5.25000000e+02 
495.509  5.12000000e+02 
494.611  4.98000000e+02 
493.712  5.26000000e+02 
492.814  4.77000000e+02 
491.916  5.30000000e+02 
491.018  5.26000000e+02 
490.120  5.00000000e+02 
489.221  5.77000000e+02 
488.323  5.78000000e+02 
487.425  5.78000000e+02 
486.527  5.65000000e+02 
485.628  5.37000000e+02 
484.730  5.26000000e+02 
483.832  4.64000000e+02 
482.934  5.66000000e+02 
482.035  5.25000000e+02 
481.137  5.14000000e+02 
480.239  5.45000000e+02 
479.341  5.12000000e+02 
478.443  4.77000000e+02 
477.544  4.90000000e+02 
476.646  5.07000000e+02 
475.748  4.97000000e+02 
474.850  4.90000000e+02 
473.951  5.30000000e+02 
473.053  5.22000000e+02 
472.155  4.96000000e+02 
471.257  5.23000000e+02 
470.359  5.26000000e+02 
469.460  5.44000000e+02 
468.562  5.34000000e+02 
467.664  5.30000000e+02 
466.766  4.98000000e+02 
465.867  5.06000000e+02 
464.969  4.75000000e+02 
464.071  5.71000000e+02 
463.173  5.21000000e+02 
462.274  5.15000000e+02 
461.376  5.10000000e+02 
460.478  4.95000000e+02 
459.580  5.25000000e+02 
458.682  5.34000000e+02 
457.783  5.11000000e+02 
456.885  5.55000000e+02 
455.987  5.15000000e+02 
455.089  4.94000000e+02 
454.190  5.26000000e+02 
453.292  4.82000000e+02 
452.394  5.08000000e+02 
451.496  5.11000000e+02 
450.598  5.01000000e+02 
449.699  5.20000000e+02 
448.801  4.96000000e+02 
447.903  5.55000000e+02 
447.005  4.98000000e+02 
446.106  5.51000000e+02 
445.208  5.44000000e+02 
444.310  5.15000000e+02 
443.412  5.22000000e+02 
442.513  5.32000000e+02 
441.615  5.00000000e+02 
440.717  5.33000000e+02 
439.819  5.27000000e+02 
438.921  5.08000000e+02 
438.022  4.92000000e+02 
437.124  4.74000000e+02 
436.226  5.25000000e+02 
435.328  5.06000000e+02 
434.429  5.36000000e+02 
433.531  5.76000000e+02 
432.633  5.58000000e+02 
431.735  5.54000000e+02 
430.837  5.94000000e+02 
429.938  5.28000000e+02 
429.040  5.17000000e+02 
428.142  5.54000000e+02 
427.244  5.67000000e+02 
426.345  5.59000000e+02 
425.447  5.42000000e+02 
424.549  5.55000000e+02 
423.651  5.73000000e+02 
422.753  5.71000000e+02 
421.854  5.67000000e+02 
420.956  5.36000000e+02 
420.058  5.37000000e+02 
419.160  5.64000000e+02 
418.261  5.81000000e+02 
417.363  5.76000000e+02 
416.465  6.16000000e+02 
415.567  5.70000000e+02 
414.668  5.82000000e+02 
413.770  5.51000000e+02 
412.872  5.26000000e+02 
411.974  5.63000000e+02 
411.076  5.34000000e+02 
410.177  5.57000000e+02 
409.279  5.48000000e+02 
408.381  5.22000000e+02 
407.483  5.85000000e+02 
406.584  5.71000000e+02 
405.686  5.19000000e+02 
404.788  5.26000000e+02 
403.890  5.45000000e+02 
402.992  5.30000000e+02 
402.093  5.53000000e+02 
401.195  5.44000000e+02 
400.297  5.70000000e+02 
399.399  5.38000000e+02 
398.500  5.57000000e+02 
397.602  5.11000000e+02 
396.704  5.59000000e+02 
395.806  5.65000000e+02 
394.907  6.10000000e+02 
394.009  6.40000000e+02 
393.111  8.17000000e+02 
392.213  7.32000000e+02 
391.315  5.91000000e+02 
390.416  5.62000000e+02 
389.518  5.04000000e+02 
388.620  5.42000000e+02 
387.722  5.97000000e+02 
386.823  5.28000000e+02 
385.925  5.40000000e+02 
385.027  5.23000000e+02 
384.129  5.72000000e+02 
383.231  5.93000000e+02 
382.332  5.91000000e+02 
381.434  5.73000000e+02 
380.536  5.23000000e+02 
379.638  5.64000000e+02 
378.739  4.82000000e+02 
377.841  4.81000000e+02 
376.943  5.29000000e+02 
376.045  5.18000000e+02 
375.146  5.30000000e+02 
374.248  5.52000000e+02 
373.350  5.66000000e+02 
372.452  5.57000000e+02 
371.554  5.60000000e+02 
370.655  5.51000000e+02 
369.757  5.79000000e+02 
368.859  5.61000000e+02 
367.961  5.61000000e+02 
367.062  5.73000000e+02 
366.164  5.45000000e+02 
365.266  5.48000000e+02 
364.368  5.95000000e+02 
363.470  5.43000000e+02 
362.571  5.86000000e+02 
361.673  5.48000000e+02 
360.775  5.44000000e+02 
359.877  5.73000000e+02 
358.978  5.80000000e+02 
358.080  5.43000000e+02 
357.182  6.09000000e+02 
356.284  5.95000000e+02 
355.385  5.56000000e+02 
354.487  5.80000000e+02 
353.589  6.04000000e+02 
352.691  6.41000000e+02 
351.793  6.02000000e+02 
350.894  5.38000000e+02 
349.996  5.98000000e+02 
349.098  6.23000000e+02 
348.200  6.39000000e+02 
347.301  6.09000000e+02 
346.403  6.01000000e+02 
345.505  6.75000000e+02 
344.607  6.05000000e+02 
343.709  6.95000000e+02 
342.810  6.53000000e+02 
341.912  6.97000000e+02 
341.014  6.39000000e+02 
340.116  6.35000000e+02 
339.217  6.37000000e+02 
338.319  6.18000000e+02 
337.421  6.59000000e+02 
336.523  6.68000000e+02 
335.625  6.23000000e+02 
334.726  6.36000000e+02 
333.828  6.47000000e+02 
332.930  6.55000000e+02 
332.032  6.87000000e+02 
331.133  7.02000000e+02 
330.235  6.93000000e+02 
329.337  6.64000000e+02 
328.439  6.37000000e+02 
327.540  6.54000000e+02 
326.642  6.86000000e+02 
325.744  6.94000000e+02 
324.846  6.51000000e+02 
323.948  7.10000000e+02 
323.049  7.15000000e+02 
322.151  6.72000000e+02 
321.253  6.44000000e+02 
320.355  7.15000000e+02 
319.456  6.56000000e+02 
318.558  6.90000000e+02 
317.660  6.75000000e+02 
316.762  6.98000000e+02 
315.864  6.63000000e+02 
314.965  7.06000000e+02 
314.067  7.21000000e+02 
313.169  7.03000000e+02 
312.271  6.86000000e+02 
311.372  7.71000000e+02 
310.474  7.29000000e+02 
309.576  7.51000000e+02 
308.678  7.36000000e+02 
307.779  7.48000000e+02 
306.881  7.22000000e+02 
305.983  7.52000000e+02 
305.085  7.47000000e+02 
304.187  7.07000000e+02 
303.288  7.72000000e+02 
302.390  7.56000000e+02 
301.492  7.83000000e+02 
300.594  7.59000000e+02 
299.695  7.17000000e+02 
298.797  7.46000000e+02 
297.899  6.87000000e+02 
297.001  6.85000000e+02 
296.103  7.11000000e+02 
295.204  6.76000000e+02 
294.306  6.31000000e+02 
293.408  6.65000000e+02 
292.510  6.08000000e+02 
291.611  6.19000000e+02 
290.713  5.74000000e+02 
289.815  5.51000000e+02 
288.917  5.33000000e+02 
288.018  5.21000000e+02 
287.120  5.04000000e+02 
286.222  4.75000000e+02 
285.324  6.25000000e+02 
284.426  7.96000000e+02 
283.527  7.97000000e+02 
282.629  1.24300000e+03 
281.731  2.12000000e+03 
280.833  3.78100000e+03 
279.934  2.54200000e+03 
279.036  7.30000000e+02 
278.138  4.43000000e+02 
277.240  4.00000000e+02 
276.342  4.11000000e+02 
275.443  4.01000000e+02 
274.545  3.83000000e+02 
273.647  3.81000000e+02 
272.749  3.75000000e+02 
271.850  4.21000000e+02 
270.952  3.84000000e+02 
270.054  3.76000000e+02 
269.156  4.13000000e+02 
268.258  3.69000000e+02 
267.359  3.98000000e+02 
266.461  3.82000000e+02 
265.563  3.72000000e+02 
264.665  3.84000000e+02 
263.766  3.06400000e+03 
262.868  3.09500000e+03 
261.970  2.65800000e+03 
261.072  2.54200000e+03 
260.173  1.09800000e+03 
259.275  1.41800000e+03 
258.377  6.18000000e+02 
257.479  3.08100000e+03 
256.581  2.58000000e+03 
255.682  3.51000000e+02 
254.784  3.44000000e+02 
253.886  3.63000000e+02 
252.988  3.37000000e+02 
252.089  3.90000000e+02 
251.191  3.93000000e+02 
250.293  4.08000000e+02 
249.395  3.88000000e+02 
248.497  3.92000000e+02 
247.598  3.87000000e+02 
246.700  3.78000000e+02 
245.802  3.68000000e+02 
244.904  4.12000000e+02 
244.005  3.80000000e+02 
243.107  3.99000000e+02 
242.209  3.65000000e+02 
241.311  3.41000000e+02 
240.412  3.81000000e+02 
239.514  3.95000000e+02 
238.616  3.92000000e+02 
237.718  3.93000000e+02 
236.820  3.93000000e+02 
235.921  3.59000000e+02 
235.023  3.85000000e+02 
234.125  3.84000000e+02 
233.227  3.65000000e+02 
232.328  3.87000000e+02 
231.430  3.48000000e+02 
230.532  3.65000000e+02 
229.634  4.10000000e+02 
228.736  3.93000000e+02 
227.837  4.29000000e+02 
226.939  3.79000000e+02 
226.041  3.85000000e+02 
225.143  4.03000000e+02 
224.244  3.75000000e+02 
223.346  3.49000000e+02 
222.448  3.44000000e+02 
221.550  3.66000000e+02 
220.651  3.20000000e+02 
219.753  3.64000000e+02 
218.855  3.59000000e+02 
217.957  3.53000000e+02 
217.059  3.64000000e+02 
216.160  3.54000000e+02 
215.262  3.56000000e+02 
214.364  3.66000000e+02 
213.466  3.30000000e+02 
212.567  3.68000000e+02 
211.669  3.41000000e+02 
210.771  3.99000000e+02 
209.873  3.85000000e+02 
208.975  3.40000000e+02 
208.076  3.76000000e+02 
207.178  3.81000000e+02 
206.280  3.54000000e+02 
205.382  3.80000000e+02 
204.483  3.65000000e+02 
203.585  3.53000000e+02 
202.687  3.48000000e+02 
201.789  3.87000000e+02 
200.890  3.58000000e+02 
199.992  3.41000000e+02 
199.094  3.39000000e+02 
198.196  3.68000000e+02 
197.298  3.74000000e+02 
196.399  3.70000000e+02 
195.501  3.60000000e+02 
194.603  3.37000000e+02 
193.705  3.49000000e+02 
192.806  3.11000000e+02 
191.908  3.67000000e+02 
191.010  3.48000000e+02 
190.112  3.59000000e+02 
189.214  3.83000000e+02 
188.315  3.43000000e+02 
187.417  3.66000000e+02 
186.519  3.58000000e+02 
185.621  3.69000000e+02 
184.722  3.59000000e+02 
183.824  3.79000000e+02 
182.926  3.73000000e+02 
182.028  3.63000000e+02 
181.130  3.51000000e+02 
180.231  3.81000000e+02 
179.333  3.55000000e+02 
178.435  3.59000000e+02 
177.537  3.40000000e+02 
176.638  3.51000000e+02 
175.740  3.71000000e+02 
174.842  3.51000000e+02 
173.944  3.70000000e+02 
173.045  3.67000000e+02 
172.147  3.87000000e+02 
171.249  3.54000000e+02 
170.351  3.21000000e+02 
169.453  3.27000000e+02 
168.554  3.78000000e+02 
167.656  3.62000000e+02 
166.758  4.12000000e+02 
165.860  4.01000000e+02 
164.961  3.30000000e+02 
164.063  3.45000000e+02 
163.165  3.82000000e+02 
162.267  3.33000000e+02 
161.369  3.81000000e+02 
160.470  3.35000000e+02 
159.572  3.86000000e+02 
158.674  3.25000000e+02 
157.776  3.51000000e+02 
156.877  3.58000000e+02 
155.979  3.65000000e+02 
155.081  3.74000000e+02 
154.183  3.59000000e+02 
153.284  4.09000000e+02 
152.386  4.04000000e+02 
151.488  4.04000000e+02 
150.590  3.60000000e+02 
149.692  3.54000000e+02 
148.793  3.34000000e+02 
147.895  3.59000000e+02 
146.997  3.55000000e+02 
146.099  3.62000000e+02 
145.200  3.45000000e+02 
144.302  3.36000000e+02 
143.404  3.81000000e+02 
142.506  3.70000000e+02 
141.608  3.36000000e+02 
140.709  3.28000000e+02 
139.811  3.54000000e+02 
138.913  3.72000000e+02 
138.015  3.65000000e+02 
137.116  3.45000000e+02 
136.218  3.57000000e+02 
135.320  3.75000000e+02 
134.422  3.45000000e+02 
133.523  3.68000000e+02 
132.625  3.34000000e+02 
131.727  3.49000000e+02 
130.829  3.46000000e+02 
129.931  3.31000000e+02 
129.032  3.63000000e+02 
128.134  3.40000000e+02 
127.236  3.41000000e+02 
126.338  3.75000000e+02 
125.439  3.53000000e+02 
124.541  3.77000000e+02 
123.643  3.43000000e+02 
122.745  3.42000000e+02 
121.847  3.44000000e+02 
120.948  3.76000000e+02 
120.050  3.61000000e+02 
119.152  3.63000000e+02 
118.254  3.36000000e+02 
117.355  3.35000000e+02 
116.457  3.30000000e+02 
115.559  3.36000000e+02 
114.661  3.48000000e+02 
113.763  3.40000000e+02 
112.864  3.39000000e+02 
111.966  3.47000000e+02 
111.068  3.07000000e+02 
110.170  3.39000000e+02 
109.271  3.48000000e+02 
108.373  3.44000000e+02 
107.475  3.21000000e+02 
106.577  3.44000000e+02 
105.678  3.33000000e+02 
104.780  3.02000000e+02 
103.882  3.18000000e+02 
102.984  3.67000000e+02 
102.086  4.27000000e+02 
101.187  3.96000000e+02 
100.289  3.16000000e+02 
99.391   3.07000000e+02 
98.493   3.26000000e+02 
97.594   2.97000000e+02 
96.696   3.03000000e+02 
95.798   2.94000000e+02 
94.900   2.80000000e+02 
94.002   2.96000000e+02 
93.103   3.40000000e+02 
92.205   2.87000000e+02 
91.307   2.96000000e+02 
90.409   3.32000000e+02 
89.510   3.29000000e+02 
88.612   3.39000000e+02 
87.714   3.13000000e+02 
86.816   2.72000000e+02 
85.917   2.94000000e+02 
85.019   3.05000000e+02 
84.121   3.24000000e+02 
83.223   3.37000000e+02 
82.325   3.42000000e+02 
81.426   2.77000000e+02 
80.528   2.36000000e+02 
79.630   2.58000000e+02 
78.732   2.58000000e+02 
77.833   2.26000000e+02 
76.935   2.63000000e+02 
76.037   2.49000000e+02 
75.139   2.34000000e+02 
74.241   2.47000000e+02 
73.342   2.39000000e+02 
72.444   2.50000000e+02 
71.546   3.73000000e+02 
70.648   1.75100000e+03 
69.749   2.64000000e+02 
68.851   2.48000000e+02 
67.953   2.35000000e+02 
67.055   2.46000000e+02 
66.156   2.40000000e+02 
65.258   2.54000000e+02 
64.360   2.47000000e+02 
63.462   1.93000000e+02 
62.564   1.94000000e+02 
61.665   2.16000000e+02 
60.767   2.03000000e+02 
59.869   1.92000000e+02 
58.971   1.71000000e+02 
58.072   1.78000000e+02 
57.174   1.74000000e+02 
56.276   1.68000000e+02 
55.378   1.61000000e+02 
54.480   1.78000000e+02 
53.581   1.56000000e+02 
52.683   2.13000000e+02 
51.785   2.32000000e+02 
50.887   2.81000000e+02 
49.988   3.62000000e+02 
49.090   4.14000000e+02 
48.192   2.08000000e+02 
47.294   1.23000000e+02 
46.396   1.19000000e+02 
45.497   1.15000000e+02 
44.599   9.70000000e+01 
43.701   8.20000000e+01 
42.803   9.70000000e+01 
41.904   8.90000000e+01 
41.006   8.10000000e+01 
40.108   8.40000000e+01 
39.210   9.40000000e+01 
38.311   1.03000000e+02 
37.413   9.60000000e+01 
36.515   9.80000000e+01 
35.617   8.50000000e+01 
34.719   7.60000000e+01 
33.820   6.90000000e+01 
32.922   8.60000000e+01 
32.024   8.40000000e+01 
31.126   9.70000000e+01 
30.227   1.11000000e+02 
29.329   1.41000000e+02 
28.431   1.02000000e+02 
27.533   1.70000000e+02 
26.635   1.28000000e+02 
25.736   9.80000000e+01 
24.838   8.20000000e+01 
23.940   1.11000000e+02 
23.042   8.30000000e+01 
22.143   8.20000000e+01 
21.245   6.80000000e+01 
20.347   6.80000000e+01 
19.449   6.00000000e+01 
18.550   6.70000000e+01 
17.652   4.90000000e+01 
16.754   5.70000000e+01 
15.856   6.00000000e+01 
14.958   5.70000000e+01 
14.059   3.30000000e+01 
13.161   4.00000000e+01 
12.263   4.60000000e+01 
11.365   3.50000000e+01 
10.466   3.90000000e+01 
9.568    5.20000000e+01 
8.670    5.20000000e+01 
7.772    6.10000000e+01 
6.874    5.10000000e+01 
5.975    6.90000000e+01 
5.077    3.50000000e+01 
4.179    2.80000000e+01 
3.281    1.00000000e+01 
2.382    7.00000000e+00 
1.484    2.00000000e+00 
0.586    3.00000000e+00 
[ Region 2 Curve ]
BEcenter= 250.000 
BEwidth= -483.691
Excitation= 1486.600
Time_p_channel= 15.360  
Size= 543
491.846  4.65000000e+02 
490.953  4.85000000e+02 
490.061  5.25000000e+02 
489.168  4.88000000e+02 
488.276  5.14000000e+02 
487.384  4.82000000e+02 
486.491  5.03000000e+02 
485.599  5.11000000e+02 
484.706  4.86000000e+02 
483.814  5.31000000e+02 
482.922  5.43000000e+02 
482.029  5.18000000e+02 
481.137  5.25000000e+02 
480.244  5.13000000e+02 
479.352  4.88000000e+02 
478.459  5.12000000e+02 
477.567  5.22000000e+02 
476.675  5.00000000e+02 
475.782  5.06000000e+02 
474.890  5.07000000e+02 
473.997  5.08000000e+02 
473.105  5.36000000e+02 
472.212  5.38000000e+02 
471.320  5.17000000e+02 
470.428  4.85000000e+02 
469.535  4.83000000e+02 
468.643  5.21000000e+02 
467.750  5.31000000e+02 
466.858  4.93000000e+02 
465.966  5.13000000e+02 
465.073  5.09000000e+02 
464.181  5.67000000e+02 
463.288  5.42000000e+02 
462.396  5.19000000e+02 
461.503  5.32000000e+02 
460.611  5.32000000e+02 
459.719  5.49000000e+02 
458.826  5.25000000e+02 
457.934  5.29000000e+02 
457.041  5.16000000e+02 
456.149  4.99000000e+02 
455.257  5.68000000e+02 
454.364  5.52000000e+02 
453.472  6.02000000e+02 
452.579  5.19000000e+02 
451.687  5.20000000e+02 
450.794  5.26000000e+02 
449.902  5.15000000e+02 
449.010  5.26000000e+02 
448.117  5.07000000e+02 
447.225  5.19000000e+02 
446.332  5.02000000e+02 
445.440  5.40000000e+02 
444.547  5.30000000e+02 
443.655  5.35000000e+02 
442.763  5.53000000e+02 
441.870  5.51000000e+02 
440.978  5.16000000e+02 
440.085  5.55000000e+02 
439.193  5.86000000e+02 
438.301  5.76000000e+02 
437.408  5.28000000e+02 
436.516  5.70000000e+02 
435.623  5.34000000e+02 
434.731  5.37000000e+02 
433.838  5.32000000e+02 
432.946  5.31000000e+02 
432.054  5.69000000e+02 
431.161  5.51000000e+02 
430.269  5.16000000e+02 
429.376  5.73000000e+02 
428.484  5.32000000e+02 
427.591  5.77000000e+02 
426.699  5.83000000e+02 
425.807  5.86000000e+02 
424.914  5.70000000e+02 
424.022  5.45000000e+02 
423.129  5.46000000e+02 
422.237  5.55000000e+02 
421.345  5.50000000e+02 
420.452  5.58000000e+02 
419.560  5.56000000e+02 
418.667  5.11000000e+02 
417.775  5.72000000e+02 
416.882  5.32000000e+02 
415.990  5.70000000e+02 
415.098  5.41000000e+02 
414.205  5.35000000e+02 
413.313  5.30000000e+02 
412.420  5.22000000e+02 
411.528  5.35000000e+02 
410.636  5.54000000e+02 
409.743  5.32000000e+02 
408.851  5.70000000e+02 
407.958  5.31000000e+02 
407.066  5.58000000e+02 
406.173  5.85000000e+02 
405.281  5.60000000e+02 
404.389  7.25000000e+02 
403.496  8.26000000e+02 
402.604  6.96000000e+02 
401.711  5.88000000e+02 
400.819  5.64000000e+02 
399.926  5.13000000e+02 
399.034  5.32000000e+02 
398.142  4.87000000e+02 
397.249  5.54000000e+02 
396.357  5.43000000e+02 
395.464  5.94000000e+02 
394.572  5.30000000e+02 
393.680  5.90000000e+02 
392.787  5.61000000e+02 
391.895  5.52000000e+02 
391.002  5.66000000e+02 
390.110  5.30000000e+02 
389.217  5.43000000e+02 
388.325  5.21000000e+02 
387.433  5.76000000e+02 
386.540  5.61000000e+02 
385.648  5.51000000e+02 
384.755  6.08000000e+02 
383.863  5.51000000e+02 
382.971  6.05000000e+02 
382.078  5.74000000e+02 
381.186  5.80000000e+02 
380.293  5.56000000e+02 
379.401  5.67000000e+02 
378.508  5.56000000e+02 
377.616  5.68000000e+02 
376.724  5.61000000e+02 
375.831  5.90000000e+02 
374.939  6.14000000e+02 
374.046  5.98000000e+02 
373.154  5.85000000e+02 
372.261  5.38000000e+02 
371.369  5.65000000e+02 
370.477  5.77000000e+02 
369.584  6.22000000e+02 
368.692  6.04000000e+02 
367.799  5.61000000e+02 
366.907  6.17000000e+02 
366.015  6.12000000e+02 
365.122  6.12000000e+02 
364.230  6.20000000e+02 
363.337  6.15000000e+02 
362.445  6.11000000e+02 
361.552  5.87000000e+02 
360.660  5.87000000e+02 
359.768  6.28000000e+02 
358.875  6.27000000e+02 
357.983  5.89000000e+02 
357.090  6.27000000e+02 
356.198  6.70000000e+02 
355.306  6.36000000e+02 
354.413  5.84000000e+02 
353.521  6.79000000e+02 
352.628  6.54000000e+02 
351.736  6.59000000e+02 
350.843  6.24000000e+02 
349.951  6.41000000e+02 
349.059  6.61000000e+02 
348.166  6.58000000e+02 
347.274  6.70000000e+02 
346.381  6.27000000e+02 
345.489  6.32000000e+02 
344.596  6.29000000e+02 
343.704  6.42000000e+02 
342.812  6.75000000e+02 
341.919  6.66000000e+02 
341.027  6.40000000e+02 
340.134  6.62000000e+02 
339.242  6.36000000e+02 
338.350  6.33000000e+02 
337.457  6.78000000e+02 
336.565  6.68000000e+02 
335.672  6.55000000e+02 
334.780  6.89000000e+02 
333.887  6.57000000e+02 
332.995  6.61000000e+02 
332.103  6.54000000e+02 
331.210  7.07000000e+02 
330.318  6.72000000e+02 
329.425  6.69000000e+02 
328.533  7.54000000e+02 
327.641  6.70000000e+02 
326.748  7.06000000e+02 
325.856  7.18000000e+02 
324.963  7.44000000e+02 
324.071  7.70000000e+02 
323.178  7.26000000e+02 
322.286  7.59000000e+02 
321.394  7.37000000e+02 
320.501  6.66000000e+02 
319.609  7.96000000e+02 
318.716  7.60000000e+02 
317.824  7.41000000e+02 
316.931  7.55000000e+02 
316.039  7.24000000e+02 
315.147  7.45000000e+02 
314.254  7.33000000e+02 
313.362  7.69000000e+02 
312.469  7.52000000e+02 
311.577  7.78000000e+02 
310.685  7.36000000e+02 
309.792  7.45000000e+02 
308.900  7.14000000e+02 
308.007  7.03000000e+02 
307.115  6.76000000e+02 
306.222  6.53000000e+02 
305.330  6.22000000e+02 
304.438  6.67000000e+02 
303.545  5.83000000e+02 
302.653  5.57000000e+02 
301.760  5.64000000e+02 
300.868  5.50000000e+02 
299.975  4.95000000e+02 
299.083  5.33000000e+02 
298.191  5.32000000e+02 
297.298  5.31000000e+02 
296.406  7.71000000e+02 
295.513  8.09000000e+02 
294.621  9.99000000e+02 
293.729  1.68000000e+03 
292.836  2.90100000e+03 
291.944  3.60900000e+03 
291.051  1.13900000e+03 
290.159  4.59000000e+02 
289.266  4.27000000e+02 
288.374  4.02000000e+02 
287.482  3.89000000e+02 
286.589  3.93000000e+02 
285.697  3.75000000e+02 
284.804  4.00000000e+02 
283.912  4.11000000e+02 
283.020  4.15000000e+02 
282.127  3.60000000e+02 
281.235  3.92000000e+02 
280.342  3.87000000e+02 
279.450  3.94000000e+02 
278.557  4.08000000e+02 
277.665  4.21000000e+02 
276.773  3.93000000e+02 
275.880  3.85000000e+02 
274.988  3.92000000e+02 
274.095  3.64000000e+02 
273.203  3.61000000e+02 
272.310  3.63000000e+02 
271.418  3.87000000e+02 
270.526  3.91000000e+02 
269.633  3.91000000e+02 
268.741  3.93000000e+02 
267.848  3.94000000e+02 
266.956  3.77000000e+02 
266.064  3.74000000e+02 
265.171  4.11000000e+02 
264.279  3.80000000e+02 
263.386  3.50000000e+02 
262.494  3.79000000e+02 
261.601  3.84000000e+02 
260.709  4.40000000e+02 
259.817  3.89000000e+02 
258.924  3.84000000e+02 
258.032  3.58000000e+02 
257.139  3.83000000e+02 
256.247  3.97000000e+02 
255.355  3.62000000e+02 
254.462  4.05000000e+02 
253.570  3.82000000e+02 
252.677  3.63000000e+02 
251.785  3.78000000e+02 
250.892  3.96000000e+02 
250.000  4.06000000e+02 
249.108  3.84000000e+02 
248.215  3.57000000e+02 
247.323  3.79000000e+02 
246.430  3.45000000e+02 
245.538  3.72000000e+02 
244.645  4.01000000e+02 
243.753  4.17000000e+02 
242.861  4.08000000e+02 
241.968  3.73000000e+02 
241.076  3.92000000e+02 
240.183  3.90000000e+02 
239.291  3.83000000e+02 
238.399  4.10000000e+02 
237.506  3.98000000e+02 
236.614  3.91000000e+02 
235.721  3.19000000e+02 
234.829  3.69000000e+02 
233.936  3.65000000e+02 
233.044  3.60000000e+02 
232.152  3.40000000e+02 
231.259  3.51000000e+02 
230.367  3.49000000e+02 
229.474  3.54000000e+02 
228.582  3.59000000e+02 
227.690  3.37000000e+02 
226.797  3.70000000e+02 
225.905  3.65000000e+02 
225.012  3.50000000e+02 
224.120  3.51000000e+02 
223.227  3.69000000e+02 
222.335  3.46000000e+02 
221.443  3.50000000e+02 
220.550  3.78000000e+02 
219.658  3.72000000e+02 
218.765  3.64000000e+02 
217.873  3.59000000e+02 
216.980  3.56000000e+02 
216.088  3.65000000e+02 
215.196  3.95000000e+02 
214.303  4.02000000e+02 
213.411  3.73000000e+02 
212.518  3.25000000e+02 
211.626  3.59000000e+02 
210.734  4.32000000e+02 
209.841  3.74000000e+02 
208.949  3.64000000e+02 
208.056  3.34000000e+02 
207.164  3.55000000e+02 
206.271  3.73000000e+02 
205.379  3.62000000e+02 
204.487  3.60000000e+02 
203.594  4.15000000e+02 
202.702  3.67000000e+02 
201.809  3.90000000e+02 
200.917  3.40000000e+02 
200.025  3.91000000e+02 
199.132  3.60000000e+02 
198.240  3.63000000e+02 
197.347  3.67000000e+02 
196.455  3.72000000e+02 
195.562  3.40000000e+02 
194.670  3.48000000e+02 
193.778  4.11000000e+02 
192.885  3.72000000e+02 
191.993  3.33000000e+02 
191.100  3.55000000e+02 
190.208  3.42000000e+02 
189.315  3.62000000e+02 
188.423  3.83000000e+02 
187.531  3.31000000e+02 
186.638  3.36000000e+02 
185.746  3.46000000e+02 
184.853  3.76000000e+02 
183.961  3.84000000e+02 
183.069  3.64000000e+02 
182.176  3.52000000e+02 
181.284  3.83000000e+02 
180.391  3.87000000e+02 
179.499  3.70000000e+02 
178.606  4.22000000e+02 
177.714  3.97000000e+02 
176.822  3.76000000e+02 
175.929  3.73000000e+02 
175.037  3.91000000e+02 
174.144  3.61000000e+02 
173.252  3.72000000e+02 
172.359  3.50000000e+02 
171.467  3.95000000e+02 
170.575  3.65000000e+02 
169.682  3.42000000e+02 
168.790  3.73000000e+02 
167.897  3.49000000e+02 
167.005  3.66000000e+02 
166.113  3.57000000e+02 
165.220  3.79000000e+02 
164.328  4.35000000e+02 
163.435  4.29000000e+02 
162.543  3.81000000e+02 
161.650  3.51000000e+02 
160.758  3.63000000e+02 
159.866  3.76000000e+02 
158.973  3.31000000e+02 
158.081  3.69000000e+02 
157.188  3.47000000e+02 
156.296  3.52000000e+02 
155.404  3.70000000e+02 
154.511  3.41000000e+02 
153.619  3.73000000e+02 
152.726  3.81000000e+02 
151.834  3.60000000e+02 
150.941  3.45000000e+02 
150.049  3.33000000e+02 
149.157  3.78000000e+02 
148.264  3.43000000e+02 
147.372  3.31000000e+02 
146.479  3.37000000e+02 
145.587  3.43000000e+02 
144.694  3.64000000e+02 
143.802  3.32000000e+02 
142.910  3.45000000e+02 
142.017  3.66000000e+02 
141.125  3.63000000e+02 
140.232  3.34000000e+02 
139.340  3.73000000e+02 
138.448  3.56000000e+02 
137.555  3.50000000e+02 
136.663  3.39000000e+02 
135.770  3.33000000e+02 
134.878  3.80000000e+02 
133.985  3.94000000e+02 
133.093  6.96000000e+02 
132.201  5.95000000e+02 
131.308  3.80000000e+02 
130.416  3.31000000e+02 
129.523  3.21000000e+02 
128.631  3.43000000e+02 
127.739  3.24000000e+02 
126.846  3.22000000e+02 
125.954  3.11000000e+02 
125.061  3.42000000e+02 
124.169  3.28000000e+02 
123.276  3.16000000e+02 
122.384  3.15000000e+02 
121.492  3.68000000e+02 
120.599  3.48000000e+02 
119.707  3.43000000e+02 
118.814  3.39000000e+02 
117.922  3.28000000e+02 
117.029  3.36000000e+02 
116.137  3.37000000e+02 
115.245  4.12000000e+02 
114.352  3.66000000e+02 
113.460  3.30000000e+02 
112.567  3.33000000e+02 
111.675  2.89000000e+02 
110.783  3.08000000e+02 
109.890  3.07000000e+02 
108.998  3.11000000e+02 
108.105  3.14000000e+02 
107.213  3.05000000e+02 
106.320  2.92000000e+02 
105.428  2.81000000e+02 
104.536  2.70000000e+02 
103.643  2.98000000e+02 
102.751  3.06000000e+02 
101.858  3.60000000e+02 
100.966  3.07000000e+02 
100.074  3.09000000e+02 
99.181   3.01000000e+02 
98.289   2.79000000e+02 
97.396   3.22000000e+02 
96.504   3.30000000e+02 
95.611   3.22000000e+02 
94.719   2.98000000e+02 
93.827   2.73000000e+02 
92.934   2.47000000e+02 
92.042   2.58000000e+02 
91.149   2.54000000e+02 
90.257   2.25000000e+02 
89.364   2.33000000e+02 
88.472   2.66000000e+02 
87.580   2.81000000e+02 
86.687   2.70000000e+02 
85.795   2.28000000e+02 
84.902   2.66000000e+02 
84.010   2.52000000e+02 
83.118   2.44000000e+02 
82.225   2.49000000e+02 
81.333   2.31000000e+02 
80.440   2.26000000e+02 
79.548   2.51000000e+02 
78.655   2.14000000e+02 
77.763   2.12000000e+02 
76.871   2.32000000e+02 
75.978   2.05000000e+02 
75.086   2.05000000e+02 
74.193   1.87000000e+02 
73.301   2.05000000e+02 
72.409   1.77000000e+02 
71.516   1.84000000e+02 
70.624   1.60000000e+02 
69.731   1.57000000e+02 
68.839   1.64000000e+02 
67.946   1.74000000e+02 
67.054   1.46000000e+02 
66.162   1.79000000e+02 
65.269   2.05000000e+02 
64.377   2.42000000e+02 
63.484   3.12000000e+02 
62.592   4.06000000e+02 
61.699   3.19000000e+02 
60.807   1.48000000e+02 
59.915   1.11000000e+02 
59.022   1.13000000e+02 
58.130   6.80000000e+01 
57.237   9.90000000e+01 
56.345   8.90000000e+01 
55.453   8.60000000e+01 
54.560   9.50000000e+01 
53.668   9.60000000e+01 
52.775   8.70000000e+01 
51.883   7.80000000e+01 
50.990   9.90000000e+01 
50.098   9.20000000e+01 
49.206   8.00000000e+01 
48.313   7.70000000e+01 
47.421   7.60000000e+01 
46.528   8.30000000e+01 
45.636   8.80000000e+01 
44.743   9.70000000e+01 
43.851   8.80000000e+01 
42.959   1.19000000e+02 
42.066   1.27000000e+02 
41.174   1.23000000e+02 
40.281   1.81000000e+02 
39.389   1.00000000e+02 
38.497   1.02000000e+02 
37.604   1.02000000e+02 
36.712   9.10000000e+01 
35.819   9.00000000e+01 
34.927   8.60000000e+01 
34.034   5.80000000e+01 
33.142   7.30000000e+01 
32.250   7.50000000e+01 
31.357   5.00000000e+01 
30.465   5.40000000e+01 
29.572   5.00000000e+01 
28.680   5.60000000e+01 
27.788   5.70000000e+01 
26.895   5.00000000e+01 
26.003   4.60000000e+01 
25.110   4.60000000e+01 
24.218   4.40000000e+01 
23.325   4.40000000e+01 
22.433   4.90000000e+01 
21.541   5.60000000e+01 
20.648   6.20000000e+01 
19.756   6.40000000e+01 
18.863   5.00000000e+01 
17.971   3.00000000e+01 
17.078   1.40000000e+01 
16.186   6.00000000e+00 
15.294   1.00000000e+00 
14.401   0.00000000e+00 
13.509   0.00000000e+00 
12.616   7.00000000e+00 
11.724   0.00000000e+00 
10.832   5.00000000e+00 
9.939    2.00000000e+00 
9.047    3.00000000e+00 
8.154    0.00000000e+00 
[ Region 3 Curve ]
BEcenter= 750.000 
BEwidth= -483.691
Excitation= 1486.600
Time_p_channel= 15.360  
Size= 543
991.846  4.10200000e+03 
990.953  4.17300000e+03 
990.061  4.19500000e+03 
989.168  4.10000000e+03 
988.276  4.13400000e+03 
987.384  4.18800000e+03 
986.491  4.09700000e+03 
985.599  4.12000000e+03 
984.706  4.02200000e+03 
983.814  4.09500000e+03 
982.922  4.10300000e+03 
982.029  4.18500000e+03 
981.137  4.09900000e+03 
980.244  4.00500000e+03 
979.352  4.11200000e+03 
978.459  4.15400000e+03 
977.567  4.22200000e+03 
976.675  4.04900000e+03 
975.782  4.05700000e+03 
974.890  3.91000000e+03 
973.997  4.04400000e+03 
973.105  3.91000000e+03 
972.212  3.78700000e+03 
971.320  3.81400000e+03 
970.428  3.66100000e+03 
969.535  3.62700000e+03 
968.643  3.66100000e+03 
967.750  3.60800000e+03 
966.858  3.55700000e+03 
965.966  3.57500000e+03 
965.073  3.51900000e+03 
964.181  3.61000000e+03 
963.288  3.59700000e+03 
962.396  3.51200000e+03 
961.503  3.46300000e+03 
960.611  3.52600000e+03 
959.719  3.51200000e+03 
958.826  3.44200000e+03 
957.934  3.49800000e+03 
957.041  3.57400000e+03 
956.149  3.57100000e+03 
955.257  3.45200000e+03 
954.364  3.47200000e+03 
953.472  3.48200000e+03 
952.579  3.35900000e+03 
951.687  3.35900000e+03 
950.794  3.40700000e+03 
949.902  3.35500000e+03 
949.010  3.43300000e+03 
948.117  3.34500000e+03 
947.225  3.46100000e+03 
946.332  3.41400000e+03 
945.440  3.43200000e+03 
944.547  3.20400000e+03 
943.655  3.26400000e+03 
942.763  3.34700000e+03 
941.870  3.24800000e+03 
940.978  3.19800000e+03 
940.085  3.18900000e+03 
939.193  3.18800000e+03 
938.301  3.24300000e+03 
937.408  3.29200000e+03 
936.516  3.37500000e+03 
935.623  3.22300000e+03 
934.731  3.11300000e+03 
933.838  3.11800000e+03 
932.946  3.22500000e+03 
932.054  3.13700000e+03 
931.161  3.24300000e+03 
930.269  3.10500000e+03 
929.376  3.23200000e+03 
928.484  3.19700000e+03 
927.591  3.13100000e+03 
926.699  3.17200000e+03 
925.807  3.07600000e+03 
924.914  3.12700000e+03 
924.022  3.08900000e+03 
923.129  3.10300000e+03 
922.237  3.11500000e+03 
921.345  3.12800000e+03 
920.452  3.12200000e+03 
919.560  3.07900000e+03 
918.667  3.04000000e+03 
917.775  3.10100000e+03 
916.882  3.04500000e+03 
915.990  3.17400000e+03 
915.098  3.09900000e+03 
914.205  2.97200000e+03 
913.313  2.95000000e+03 
912.420  2.95200000e+03 
911.528  3.02900000e+03 
910.636  3.01600000e+03 
909.743  3.09500000e+03 
908.851  2.99700000e+03 
907.958  2.83900000e+03 
907.066  3.07800000e+03 
906.173  2.94300000e+03 
905.281  2.96300000e+03 
904.389  3.03100000e+03 
903.496  2.98600000e+03 
902.604  2.92500000e+03 
901.711  3.03600000e+03 
900.819  2.99000000e+03 
899.926  2.90200000e+03 
899.034  2.95200000e+03 
898.142  2.94700000e+03 
897.249  2.88700000e+03 
896.357  2.81900000e+03 
895.464  2.88200000e+03 
894.572  2.82400000e+03 
893.680  2.77300000e+03 
892.787  2.76500000e+03 
891.895  2.81800000e+03 
891.002  2.99300000e+03 
890.110  2.91100000e+03 
889.217  2.76700000e+03 
888.325  2.82600000e+03 
887.433  2.75300000e+03 
886.540  2.93500000e+03 
885.648  2.81000000e+03 
884.755  2.77000000e+03 
883.863  2.69800000e+03 
882.971  2.84800000e+03 
882.078  2.71300000e+03 
881.186  2.75200000e+03 
880.293  2.80500000e+03 
879.401  2.85700000e+03 
878.508  2.88500000e+03 
877.616  2.79100000e+03 
876.724  2.87100000e+03 
875.831  2.74900000e+03 
874.939  2.87400000e+03 
874.046  2.74600000e+03 
873.154  2.83600000e+03 
872.261  2.78200000e+03 
871.369  2.86100000e+03 
870.477  2.69700000e+03 
869.584  2.72300000e+03 
868.692  2.73200000e+03 
867.799  2.74300000e+03 
866.907  2.79300000e+03 
866.015  2.70100000e+03 
865.122  2.73100000e+03 
864.230  2.66100000e+03 
863.337  2.74400000e+03 
862.445  2.64600000e+03 
861.552  2.81100000e+03 
860.660  2.68600000e+03 
859.768  2.79400000e+03 
858.875  2.68600000e+03 
857.983  2.67000000e+03 
857.090  2.78100000e+03 
856.198  2.82700000e+03 
855.306  2.74500000e+03 
854.413  2.66900000e+03 
853.521  2.79900000e+03 
852.628  2.64000000e+03 
851.736  2.71700000e+03 
850.843  2.67500000e+03 
849.951  2.57400000e+03 
849.059  2.71300000e+03 
848.166  2.54400000e+03 
847.274  2.70100000e+03 
846.381  2.56800000e+03 
845.489  2.74900000e+03 
844.596  2.66300000e+03 
843.704  2.64000000e+03 
842.812  2.64400000e+03 
841.919  2.72300000e+03 
841.027  2.62600000e+03 
840.134  2.63100000e+03 
839.242  2.73800000e+03 
838.350  2.67100000e+03 
837.457  2.61400000e+03 
836.565  2.64800000e+03 
835.672  2.60800000e+03 
834.780  2.57300000e+03 
833.887  2.56400000e+03 
832.995  2.68700000e+03 
832.103  2.64700000e+03 
831.210  2.68400000e+03 
830.318  2.65600000e+03 
829.425  2.55300000e+03 
828.533  2.69500000e+03 
827.641  2.54200000e+03 
826.748  2.59100000e+03 
825.856  2.59100000e+03 
824.963  2.60700000e+03 
824.071  2.58300000e+03 
823.178  2.48700000e+03 
822.286  2.54000000e+03 
821.394  2.57700000e+03 
820.501  2.55300000e+03 
819.609  2.53900000e+03 
818.716  2.67900000e+03 
817.824  2.63300000e+03 
816.931  2.56200000e+03 
816.039  2.61200000e+03 
815.147  2.47800000e+03 
814.254  2.50100000e+03 
813.362  2.44700000e+03 
812.469  2.58200000e+03 
811.577  2.58200000e+03 
810.685  2.51300000e+03 
809.792  2.52400000e+03 
808.900  2.44500000e+03 
808.007  2.47200000e+03 
807.115  2.56800000e+03 
806.222  2.56100000e+03 
805.330  2.52000000e+03 
804.438  2.52700000e+03 
803.545  2.45000000e+03 
802.653  2.44600000e+03 
801.760  2.60300000e+03 
800.868  2.44100000e+03 
799.975  2.50100000e+03 
799.083  2.52000000e+03 
798.191  2.52900000e+03 
797.298  2.49000000e+03 
796.406  2.51800000e+03 
795.513  2.43300000e+03 
794.621  2.53400000e+03 
793.729  2.46400000e+03 
792.836  2.56700000e+03 
791.944  2.37400000e+03 
791.051  2.43600000e+03 
790.159  2.41700000e+03 
789.266  2.41200000e+03 
788.374  2.46100000e+03 
787.482  2.46100000e+03 
786.589  2.36800000e+03 
785.697  2.34000000e+03 
784.804  2.36200000e+03 
783.912  2.44000000e+03 
783.020  2.32700000e+03 
782.127  2.31600000e+03 
781.235  2.41000000e+03 
780.342  2.40000000e+03 
779.450  2.41400000e+03 
778.557  2.34600000e+03 
777.665  2.38400000e+03 
776.773  2.40500000e+03 
775.880  2.36100000e+03 
774.988  2.39000000e+03 
774.095  2.33300000e+03 
773.203  2.29200000e+03 
772.310  2.31600000e+03 
771.418  2.27500000e+03 
770.526  2.29600000e+03 
769.633  2.26700000e+03 
768.741  2.25500000e+03 
767.848  2.32700000e+03 
766.956  2.28700000e+03 
766.064  2.29700000e+03 
765.171  2.30800000e+03 
764.279  2.28100000e+03 
763.386  2.28300000e+03 
762.494  2.21700000e+03 
761.601  2.35000000e+03 
760.709  2.25600000e+03 
759.817  2.28900000e+03 
758.924  2.19600000e+03 
758.032  2.28900000e+03 
757.139  2.27900000e+03 
756.247  2.26700000e+03 
755.355  2.25300000e+03 
754.462  2.33900000e+03 
753.570  2.23200000e+03 
752.677  2.23900000e+03 
751.785  2.27300000e+03 
750.892  2.27600000e+03 
750.000  2.30300000e+03 
749.108  2.25800000e+03 
748.215  2.21900000e+03 
747.323  2.19200000e+03 
746.430  2.22000000e+03 
745.538  2.24100000e+03 
744.645  2.25500000e+03 
743.753  2.18200000e+03 
742.861  2.26600000e+03 
741.968  2.17200000e+03 
741.076  2.26300000e+03 
740.183  2.26500000e+03 
739.291  2.18000000e+03 
738.399  2.10700000e+03 
737.506  2.18900000e+03 
736.614  2.17200000e+03 
735.721  2.20000000e+03 
734.829  2.15600000e+03 
733.936  2.16700000e+03 
733.044  2.10500000e+03 
732.152  2.05500000e+03 
731.259  2.13300000e+03 
730.367  2.02700000e+03 
729.474  2.10100000e+03 
728.582  2.14200000e+03 
727.690  2.08900000e+03 
726.797  2.14200000e+03 
725.905  2.03600000e+03 
725.012  2.00800000e+03 
724.120  2.09300000e+03 
723.227  2.03500000e+03 
722.335  2.12600000e+03 
721.443  2.04900000e+03 
720.550  2.10900000e+03 
719.658  2.10800000e+03 
718.765  2.10100000e+03 
717.873  1.98800000e+03 
716.980  2.02600000e+03 
716.088  1.99800000e+03 
715.196  1.98000000e+03 
714.303  1.97600000e+03 
713.411  1.99300000e+03 
712.518  1.95900000e+03 
711.626  2.09200000e+03 
710.734  1.94100000e+03 
709.841  1.99300000e+03 
708.949  2.01100000e+03 
708.056  1.92900000e+03 
707.164  1.87100000e+03 
706.271  1.97400000e+03 
705.379  1.98800000e+03 
704.487  1.89000000e+03 
703.594  1.95400000e+03 
702.702  1.86100000e+03 
701.809  1.89700000e+03 
700.917  1.91300000e+03 
700.025  1.95600000e+03 
699.132  1.87400000e+03 
698.240  1.87200000e+03 
697.347  1.85000000e+03 
696.455  1.84700000e+03 
695.562  1.89700000e+03 
694.670  1.85800000e+03 
693.778  1.89100000e+03 
692.885  1.82500000e+03 
691.993  1.93200000e+03 
691.100  1.76700000e+03 
690.208  1.81100000e+03 
689.315  1.82800000e+03 
688.423  1.79800000e+03 
687.531  1.78500000e+03 
686.638  1.78600000e+03 
685.746  1.82600000e+03 
684.853  1.77300000e+03 
683.961  1.79100000e+03 
683.069  1.78700000e+03 
682.176  1.64300000e+03 
681.284  1.72000000e+03 
680.391  1.70800000e+03 
679.499  1.76800000e+03 
678.606  1.63100000e+03 
677.714  1.70700000e+03 
676.822  1.64700000e+03 
675.929  1.64200000e+03 
675.037  1.64400000e+03 
674.144  1.77000000e+03 
673.252  1.56200000e+03 
672.359  1.59500000e+03 
671.467  1.60600000e+03 
670.575  1.52100000e+03 
669.682  1.56100000e+03 
668.790  1.48100000e+03 
667.897  1.50300000e+03 
667.005  1.51800000e+03 
666.113  1.55000000e+03 
665.220  1.68600000e+03 
664.328  1.69400000e+03 
663.435  1.63000000e+03 
662.543  1.47000000e+03 
661.650  1.38400000e+03 
660.758  1.30800000e+03 
659.866  1.30000000e+03 
658.973  1.33400000e+03 
658.081  1.30000000e+03 
657.188  1.40100000e+03 
656.296  1.43900000e+03 
655.404  1.44900000e+03 
654.511  1.57800000e+03 
653.619  1.75600000e+03 
652.726  1.78900000e+03 
651.834  1.60000000e+03 
650.941  1.23900000e+03 
650.049  1.06300000e+03 
649.157  1.08700000e+03 
648.264  1.00100000e+03 
647.372  1.06400000e+03 
646.479  1.09500000e+03 
645.587  1.07400000e+03 
644.694  1.05600000e+03 
643.802  1.08200000e+03 
642.910  1.05900000e+03 
642.017  1.08400000e+03 
641.125  1.03400000e+03 
640.232  1.03900000e+03 
639.340  1.04400000e+03 
638.448  1.05600000e+03 
637.555  1.03100000e+03 
636.663  1.02800000e+03 
635.770  1.01700000e+03 
634.878  1.03000000e+03 
633.985  1.04100000e+03 
633.093  1.06700000e+03 
632.201  1.10900000e+03 
631.308  1.10900000e+03 
630.416  1.04800000e+03 
629.523  1.07600000e+03 
628.631  1.07500000e+03 
627.739  1.07900000e+03 
626.846  1.07100000e+03 
625.954  1.04700000e+03 
625.061  1.08400000e+03 
624.169  1.08000000e+03 
623.276  1.06300000e+03 
622.384  1.09100000e+03 
621.492  1.05000000e+03 
620.599  1.06900000e+03 
619.707  1.07200000e+03 
618.814  1.07900000e+03 
617.922  1.05100000e+03 
617.029  9.63000000e+02 
616.137  1.11600000e+03 
615.245  1.09500000e+03 
614.352  1.01700000e+03 
613.460  1.07700000e+03 
612.567  1.04500000e+03 
611.675  1.09300000e+03 
610.783  1.11500000e+03 
609.890  1.06300000e+03 
608.998  1.11400000e+03 
608.105  1.11100000e+03 
607.213  1.06000000e+03 
606.320  1.09700000e+03 
605.428  1.07400000e+03 
604.536  1.05200000e+03 
603.643  1.03400000e+03 
602.751  1.05000000e+03 
601.858  1.04100000e+03 
600.966  1.03900000e+03 
600.074  1.13400000e+03 
599.181  1.12300000e+03 
598.289  1.04400000e+03 
597.396  1.03000000e+03 
596.504  1.04600000e+03 
595.611  1.09700000e+03 
594.719  1.09900000e+03 
593.827  1.07000000e+03 
592.934  1.03000000e+03 
592.042  1.06800000e+03 
591.149  1.09000000e+03 
590.257  1.07700000e+03 
589.364  1.08800000e+03 
588.472  1.07700000e+03 
587.580  1.04400000e+03 
586.687  1.04900000e+03 
585.795  1.07700000e+03 
584.902  1.04000000e+03 
584.010  1.03600000e+03 
583.118  1.05300000e+03 
582.225  1.06600000e+03 
581.333  1.04300000e+03 
580.440  1.06300000e+03 
579.548  1.01300000e+03 
578.655  1.05600000e+03 
577.763  1.08700000e+03 
576.871  9.83000000e+02 
575.978  1.07400000e+03 
575.086  1.03800000e+03 
574.193  9.88000000e+02 
573.301  1.05000000e+03 
572.409  1.11000000e+03 
571.516  1.08400000e+03 
570.624  1.07500000e+03 
569.731  1.08300000e+03 
568.839  1.05000000e+03 
567.946  1.10200000e+03 
567.054  1.00300000e+03 
566.162  1.10500000e+03 
565.269  1.05100000e+03 
564.377  1.04800000e+03 
563.484  9.73000000e+02 
562.592  9.95000000e+02 
561.699  9.17000000e+02 
560.807  9.51000000e+02 
559.915  8.82000000e+02 
559.022  8.48000000e+02 
558.130  8.15000000e+02 
557.237  8.45000000e+02 
556.345  7.61000000e+02 
555.453  7.54000000e+02 
554.560  7.01000000e+02 
553.668  6.62000000e+02 
552.775  6.42000000e+02 
551.883  6.89000000e+02 
550.990  6.63000000e+02 
550.098  6.75000000e+02 
549.206  1.03200000e+03 
548.313  1.85700000e+03 
547.421  2.58800000e+03 
546.528  2.37000000e+03 
545.636  1.73700000e+03 
544.743  1.64400000e+03 
543.851  8.75000000e+02 
542.959  5.37000000e+02 
542.066  5.16000000e+02 
541.174  5.27000000e+02 
540.281  5.56000000e+02 
539.389  5.02000000e+02 
538.497  4.73000000e+02 
537.604  4.77000000e+02 
536.712  4.61000000e+02 
535.819  4.83000000e+02 
534.927  5.33000000e+02 
534.034  4.93000000e+02 
533.142  5.08000000e+02 
532.250  4.55000000e+02 
531.357  5.26000000e+02 
530.465  5.09000000e+02 
529.572  5.04000000e+02 
528.680  5.18000000e+02 
527.788  5.25000000e+02 
526.895  4.91000000e+02 
526.003  4.99000000e+02 
525.110  4.91000000e+02 
524.218  4.35000000e+02 
523.325  5.15000000e+02 
522.433  5.26000000e+02 
521.541  5.24000000e+02 
520.648  4.58000000e+02 
519.756  5.21000000e+02 
518.863  4.85000000e+02 
517.971  4.75000000e+02 
517.078  5.36000000e+02 
516.186  4.84000000e+02 
515.294  5.44000000e+02 
514.401  5.39000000e+02 
513.509  5.81000000e+02 
512.616  6.01000000e+02 
511.724  6.41000000e+02 
510.832  5.28000000e+02 
509.939  4.95000000e+02 
509.047  5.21000000e+02 
508.154  4.86000000e+02 
[ Region 4 Curve ]
BEcenter= 125.000 
BEwidth= -241.846
Excitation= 1486.600
Time_p_channel= 15.360  
Size= 272
245.923  3.44000000e+02 
245.030  3.92000000e+02 
244.138  4.10000000e+02 
243.246  3.91000000e+02 
242.353  3.91000000e+02 
241.461  3.61000000e+02 
240.568  3.38000000e+02 
239.676  3.91000000e+02 
238.783  3.76000000e+02 
237.891  3.28000000e+02 
236.999  4.12000000e+02 
236.106  3.82000000e+02 
235.214  3.84000000e+02 
234.321  3.74000000e+02 
233.429  4.32000000e+02 
232.537  3.96000000e+02 
231.644  3.89000000e+02 
230.752  3.81000000e+02 
229.859  3.83000000e+02 
228.967  3.63000000e+02 
228.074  3.41000000e+02 
227.182  3.54000000e+02 
226.290  3.77000000e+02 
225.397  3.54000000e+02 
224.505  3.40000000e+02 
223.612  3.77000000e+02 
222.720  3.55000000e+02 
221.828  3.41000000e+02 
220.935  3.70000000e+02 
220.043  4.04000000e+02 
219.150  3.79000000e+02 
218.258  3.22000000e+02 
217.365  3.51000000e+02 
216.473  3.39000000e+02 
215.581  3.64000000e+02 
214.688  3.62000000e+02 
213.796  3.87000000e+02 
212.903  3.40000000e+02 
212.011  3.31000000e+02 
211.118  3.87000000e+02 
210.226  3.48000000e+02 
209.334  3.64000000e+02 
208.441  3.64000000e+02 
207.549  3.64000000e+02 
206.656  3.59000000e+02 
205.764  3.59000000e+02 
204.872  3.72000000e+02 
203.979  3.43000000e+02 
203.087  3.71000000e+02 
202.194  3.57000000e+02 
201.302  3.93000000e+02 
200.409  3.79000000e+02 
199.517  3.70000000e+02 
198.625  3.46000000e+02 
197.732  3.79000000e+02 
196.840  3.62000000e+02 
195.947  3.67000000e+02 
195.055  3.67000000e+02 
194.163  3.61000000e+02 
193.270  3.40000000e+02 
192.378  3.55000000e+02 
191.485  3.88000000e+02 
190.593  3.31000000e+02 
189.700  3.78000000e+02 
188.808  3.64000000e+02 
187.916  3.77000000e+02 
187.023  3.69000000e+02 
186.131  3.37000000e+02 
185.238  3.31000000e+02 
184.346  3.66000000e+02 
183.453  3.95000000e+02 
182.561  3.73000000e+02 
181.669  3.65000000e+02 
180.776  3.41000000e+02 
179.884  3.22000000e+02 
178.991  3.46000000e+02 
178.099  3.62000000e+02 
177.207  3.23000000e+02 
176.314  3.46000000e+02 
175.422  3.19000000e+02 
174.529  3.64000000e+02 
173.637  3.67000000e+02 
172.744  3.86000000e+02 
171.852  4.02000000e+02 
170.960  4.00000000e+02 
170.067  3.89000000e+02 
169.175  3.64000000e+02 
168.282  3.79000000e+02 
167.390  3.67000000e+02 
166.498  3.27000000e+02 
165.605  3.47000000e+02 
164.713  3.55000000e+02 
163.820  3.63000000e+02 
162.928  3.51000000e+02 
162.035  3.42000000e+02 
161.143  3.36000000e+02 
160.251  3.90000000e+02 
159.358  3.76000000e+02 
158.466  3.95000000e+02 
157.573  4.39000000e+02 
156.681  4.31000000e+02 
155.788  4.05000000e+02 
154.896  3.81000000e+02 
154.004  3.51000000e+02 
153.111  3.74000000e+02 
152.219  3.51000000e+02 
151.326  3.85000000e+02 
150.434  3.86000000e+02 
149.542  3.49000000e+02 
148.649  3.42000000e+02 
147.757  3.57000000e+02 
146.864  3.89000000e+02 
145.972  3.76000000e+02 
145.079  3.57000000e+02 
144.187  3.65000000e+02 
143.295  3.48000000e+02 
142.402  3.91000000e+02 
141.510  3.72000000e+02 
140.617  3.38000000e+02 
139.725  3.67000000e+02 
138.833  3.83000000e+02 
137.940  3.54000000e+02 
137.048  3.82000000e+02 
136.155  3.49000000e+02 
135.263  3.62000000e+02 
134.370  3.40000000e+02 
133.478  3.58000000e+02 
132.586  3.05000000e+02 
131.693  3.35000000e+02 
130.801  3.60000000e+02 
129.908  3.46000000e+02 
129.016  3.70000000e+02 
128.123  3.48000000e+02 
127.231  3.28000000e+02 
126.339  3.45000000e+02 
125.446  3.42000000e+02 
124.554  3.71000000e+02 
123.661  3.49000000e+02 
122.769  3.31000000e+02 
121.877  3.84000000e+02 
120.984  3.27000000e+02 
120.092  3.49000000e+02 
119.199  3.60000000e+02 
118.307  3.40000000e+02 
117.414  3.45000000e+02 
116.522  3.44000000e+02 
115.630  3.27000000e+02 
114.737  3.32000000e+02 
113.845  3.19000000e+02 
112.952  3.20000000e+02 
112.060  3.48000000e+02 
111.167  3.30000000e+02 
110.275  3.67000000e+02 
109.383  3.63000000e+02 
108.490  3.71000000e+02 
107.598  4.01000000e+02 
106.705  3.60000000e+02 
105.813  3.05000000e+02 
104.921  3.02000000e+02 
104.028  2.66000000e+02 
103.136  3.26000000e+02 
102.243  3.10000000e+02 
101.351  2.93000000e+02 
100.458  3.09000000e+02 
99.566   3.00000000e+02 
98.674   2.82000000e+02 
97.781   3.01000000e+02 
96.889   3.26000000e+02 
95.996   3.16000000e+02 
95.104   3.27000000e+02 
94.212   3.15000000e+02 
93.319   2.85000000e+02 
92.427   2.56000000e+02 
91.534   3.15000000e+02 
90.642   3.15000000e+02 
89.749   3.64000000e+02 
88.857   3.47000000e+02 
87.965   3.08000000e+02 
87.072   2.76000000e+02 
86.180   2.73000000e+02 
85.287   2.66000000e+02 
84.395   2.53000000e+02 
83.502   2.40000000e+02 
82.610   2.56000000e+02 
81.718   2.66000000e+02 
80.825   2.51000000e+02 
79.933   2.28000000e+02 
79.040   2.33000000e+02 
78.148   2.63000000e+02 
77.256   2.44000000e+02 
76.363   2.38000000e+02 
75.471   2.56000000e+02 
74.578   2.60000000e+02 
73.686   2.57000000e+02 
72.793   2.44000000e+02 
71.901   2.45000000e+02 
71.009   2.28000000e+02 
70.116   2.54000000e+02 
69.224   2.09000000e+02 
68.331   1.93000000e+02 
67.439   1.95000000e+02 
66.547   1.98000000e+02 
65.654   1.80000000e+02 
64.762   1.87000000e+02 
63.869   1.74000000e+02 
62.977   1.66000000e+02 
62.084   1.70000000e+02 
61.192   1.60000000e+02 
60.300   1.47000000e+02 
59.407   1.59000000e+02 
58.515   1.79000000e+02 
57.622   2.21000000e+02 
56.730   2.61000000e+02 
55.837   3.14000000e+02 
54.945   3.91000000e+02 
54.053   2.53000000e+02 
53.160   1.20000000e+02 
52.268   9.80000000e+01 
51.375   1.04000000e+02 
50.483   1.07000000e+02 
49.591   8.90000000e+01 
48.698   9.30000000e+01 
47.806   7.80000000e+01 
46.913   9.30000000e+01 
46.021   9.30000000e+01 
45.128   9.00000000e+01 
44.236   9.10000000e+01 
43.344   7.80000000e+01 
42.451   9.20000000e+01 
41.559   9.80000000e+01 
40.666   1.02000000e+02 
39.774   7.20000000e+01 
38.882   7.30000000e+01 
37.989   8.90000000e+01 
37.097   9.10000000e+01 
36.204   9.40000000e+01 
35.312   1.11000000e+02 
34.419   1.18000000e+02 
33.527   1.74000000e+02 
32.635   1.51000000e+02 
31.742   9.90000000e+01 
30.850   9.40000000e+01 
29.957   1.10000000e+02 
29.065   9.90000000e+01 
28.172   7.60000000e+01 
27.280   7.50000000e+01 
26.388   7.80000000e+01 
25.495   6.80000000e+01 
24.603   5.60000000e+01 
23.710   6.50000000e+01 
22.818   4.80000000e+01 
21.926   6.80000000e+01 
21.033   5.80000000e+01 
20.141   5.60000000e+01 
19.248   3.70000000e+01 
18.356   4.70000000e+01 
17.463   4.10000000e+01 
16.571   4.50000000e+01 
15.679   5.80000000e+01 
14.786   5.10000000e+01 
13.894   5.90000000e+01 
13.001   6.70000000e+01 
12.109   5.10000000e+01 
11.217   4.50000000e+01 
10.324   3.00000000e+01 
9.432    1.50000000e+01 
8.539    3.00000000e+00 
7.647    1.00000000e+00 
6.754    7.00000000e+00 
5.862    2.00000000e+00 
4.970    2.00000000e+00 
4.077    2.00000000e+00 
[ Region 5 Curve ]
BEcenter= 375.000 
BEwidth= -241.846
Excitation= 1486.600
Time_p_channel= 15.360  
Size= 272
495.923  5.63000000e+02 
495.030  4.96000000e+02 
494.138  4.66000000e+02 
493.246  5.29000000e+02 
492.353  4.82000000e+02 
491.461  4.83000000e+02 
490.568  5.04000000e+02 
489.676  5.09000000e+02 
488.783  5.12000000e+02 
487.891  5.24000000e+02 
486.999  4.75000000e+02 
486.106  5.06000000e+02 
485.214  4.60000000e+02 
484.321  4.90000000e+02 
483.429  4.96000000e+02 
482.537  5.21000000e+02 
481.644  4.93000000e+02 
480.752  4.91000000e+02 
479.859  4.94000000e+02 
478.967  5.26000000e+02 
478.074  4.94000000e+02 
477.182  5.31000000e+02 
476.290  4.90000000e+02 
475.397  5.37000000e+02 
474.505  5.28000000e+02 
473.612  5.26000000e+02 
472.720  4.97000000e+02 
471.828  4.64000000e+02 
470.935  5.00000000e+02 
470.043  5.13000000e+02 
469.150  5.04000000e+02 
468.258  5.22000000e+02 
467.365  5.51000000e+02 
466.473  4.68000000e+02 
465.581  5.39000000e+02 
464.688  5.17000000e+02 
463.796  5.01000000e+02 
462.903  5.06000000e+02 
462.011  4.84000000e+02 
461.118  4.99000000e+02 
460.226  5.02000000e+02 
459.334  5.28000000e+02 
458.441  5.14000000e+02 
457.549  5.34000000e+02 
456.656  5.38000000e+02 
455.764  5.39000000e+02 
454.872  5.09000000e+02 
453.979  5.01000000e+02 
453.087  5.39000000e+02 
452.194  6.03000000e+02 
451.302  5.41000000e+02 
450.409  4.98000000e+02 
449.517  4.93000000e+02 
448.625  5.37000000e+02 
447.732  5.17000000e+02 
446.840  5.03000000e+02 
445.947  5.18000000e+02 
445.055  5.81000000e+02 
444.163  5.23000000e+02 
443.270  5.81000000e+02 
442.378  5.26000000e+02 
441.485  5.22000000e+02 
440.593  5.27000000e+02 
439.700  5.24000000e+02 
438.808  5.41000000e+02 
437.916  5.64000000e+02 
437.023  5.45000000e+02 
436.131  4.98000000e+02 
435.238  5.65000000e+02 
434.346  5.28000000e+02 
433.453  5.68000000e+02 
432.561  4.87000000e+02 
431.669  5.56000000e+02 
430.776  5.64000000e+02 
429.884  5.42000000e+02 
428.991  5.18000000e+02 
428.099  5.22000000e+02 
427.207  5.58000000e+02 
426.314  5.13000000e+02 
425.422  5.55000000e+02 
424.529  5.52000000e+02 
423.637  5.40000000e+02 
422.744  5.17000000e+02 
421.852  4.93000000e+02 
420.960  5.95000000e+02 
420.067  5.48000000e+02 
419.175  5.81000000e+02 
418.282  5.26000000e+02 
417.390  5.36000000e+02 
416.498  6.03000000e+02 
415.605  5.29000000e+02 
414.713  5.30000000e+02 
413.820  5.49000000e+02 
412.928  5.50000000e+02 
412.035  5.28000000e+02 
411.143  5.22000000e+02 
410.251  5.04000000e+02 
409.358  5.24000000e+02 
408.466  5.77000000e+02 
407.573  5.10000000e+02 
406.681  5.72000000e+02 
405.788  6.03000000e+02 
404.896  6.96000000e+02 
404.004  8.16000000e+02 
403.111  6.58000000e+02 
402.219  5.92000000e+02 
401.326  6.07000000e+02 
400.434  5.34000000e+02 
399.542  5.38000000e+02 
398.649  5.23000000e+02 
397.757  5.56000000e+02 
396.864  5.48000000e+02 
395.972  5.05000000e+02 
395.079  5.65000000e+02 
394.187  5.52000000e+02 
393.295  5.16000000e+02 
392.402  5.75000000e+02 
391.510  5.42000000e+02 
390.617  5.53000000e+02 
389.725  5.72000000e+02 
388.833  5.61000000e+02 
387.940  5.63000000e+02 
387.048  5.29000000e+02 
386.155  6.02000000e+02 
385.263  5.89000000e+02 
384.370  5.53000000e+02 
383.478  5.38000000e+02 
382.586  5.76000000e+02 
381.693  5.90000000e+02 
380.801  5.83000000e+02 
379.908  5.54000000e+02 
379.016  5.32000000e+02 
378.123  5.48000000e+02 
377.231  5.84000000e+02 
376.339  5.69000000e+02 
375.446  5.46000000e+02 
374.554  6.11000000e+02 
373.661  6.12000000e+02 
372.769  5.30000000e+02 
371.877  5.32000000e+02 
370.984  6.15000000e+02 
370.092  5.29000000e+02 
369.199  5.69000000e+02 
368.307  5.48000000e+02 
367.414  6.12000000e+02 
366.522  5.66000000e+02 
365.630  6.33000000e+02 
364.737  6.11000000e+02 
363.845  6.18000000e+02 
362.952  5.91000000e+02 
362.060  6.22000000e+02 
361.167  5.77000000e+02 
360.275  6.35000000e+02 
359.383  5.80000000e+02 
358.490  6.26000000e+02 
357.598  5.90000000e+02 
356.705  6.39000000e+02 
355.813  6.28000000e+02 
354.921  6.43000000e+02 
354.028  5.92000000e+02 
353.136  6.81000000e+02 
352.243  6.38000000e+02 
351.351  6.51000000e+02 
350.458  6.13000000e+02 
349.566  5.96000000e+02 
348.674  6.29000000e+02 
347.781  5.97000000e+02 
346.889  6.31000000e+02 
345.996  6.57000000e+02 
345.104  6.18000000e+02 
344.212  6.66000000e+02 
343.319  6.66000000e+02 
342.427  6.34000000e+02 
341.534  6.65000000e+02 
340.642  6.49000000e+02 
339.749  6.46000000e+02 
338.857  6.23000000e+02 
337.965  6.54000000e+02 
337.072  6.22000000e+02 
336.180  7.24000000e+02 
335.287  6.43000000e+02 
334.395  6.81000000e+02 
333.502  6.68000000e+02 
332.610  7.30000000e+02 
331.718  6.92000000e+02 
330.825  6.50000000e+02 
329.933  6.51000000e+02 
329.040  6.76000000e+02 
328.148  7.04000000e+02 
327.256  7.36000000e+02 
326.363  6.45000000e+02 
325.471  6.78000000e+02 
324.578  7.10000000e+02 
323.686  6.48000000e+02 
322.793  6.63000000e+02 
321.901  7.38000000e+02 
321.009  7.38000000e+02 
320.116  6.89000000e+02 
319.224  7.24000000e+02 
318.331  7.71000000e+02 
317.439  7.40000000e+02 
316.547  7.83000000e+02 
315.654  7.58000000e+02 
314.762  7.63000000e+02 
313.869  7.47000000e+02 
312.977  7.43000000e+02 
312.084  7.41000000e+02 
311.192  7.28000000e+02 
310.300  7.16000000e+02 
309.407  7.12000000e+02 
308.515  7.30000000e+02 
307.622  6.26000000e+02 
306.730  6.85000000e+02 
305.837  6.37000000e+02 
304.945  6.47000000e+02 
304.053  6.14000000e+02 
303.160  6.09000000e+02 
302.268  5.94000000e+02 
301.375  5.29000000e+02 
300.483  5.71000000e+02 
299.591  5.29000000e+02 
298.698  4.99000000e+02 
297.806  5.54000000e+02 
296.913  7.45000000e+02 
296.021  8.13000000e+02 
295.128  8.46000000e+02 
294.236  1.40500000e+03 
293.344  2.29100000e+03 
292.451  3.79500000e+03 
291.559  1.95400000e+03 
290.666  5.77000000e+02 
289.774  4.04000000e+02 
288.882  3.87000000e+02 
287.989  3.70000000e+02 
287.097  3.87000000e+02 
286.204  3.51000000e+02 
285.312  3.68000000e+02 
284.419  3.79000000e+02 
283.527  3.84000000e+02 
282.635  3.76000000e+02 
281.742  3.69000000e+02 
280.850  3.92000000e+02 
279.957  3.79000000e+02 
279.065  4.06000000e+02 
278.172  4.25000000e+02 
277.280  4.27000000e+02 
276.388  3.80000000e+02 
275.495  3.97000000e+02 
274.603  3.91000000e+02 
273.710  3.92000000e+02 
272.818  3.45000000e+02 
271.926  3.79000000e+02 
271.033  3.94000000e+02 
270.141  3.85000000e+02 
269.248  3.72000000e+02 
268.356  3.76000000e+02 
267.463  3.53000000e+02 
266.571  3.56000000e+02 
265.679  4.14000000e+02 
264.786  3.71000000e+02 
263.894  3.67000000e+02 
263.001  3.91000000e+02 
262.109  3.96000000e+02 
261.217  4.09000000e+02 
260.324  3.77000000e+02 
259.432  3.52000000e+02 
258.539  3.57000000e+02 
257.647  3.87000000e+02 
256.754  3.72000000e+02 
255.862  3.65000000e+02 
254.970  4.04000000e+02 
254.077  3.51000000e+02 
[ Region 6 Curve ]
BEcenter= 625.000 
BEwidth= -241.846
Excitation= 1486.600
Time_p_channel= 15.360  
Size= 272
745.923  2.25600000e+03 
745.030  2.21300000e+03 
744.138  2.17700000e+03 
743.246  2.21300000e+03 
742.353  2.16200000e+03 
741.461  2.20400000e+03 
740.568  2.20600000e+03 
739.676  2.21500000e+03 
738.783  2.22100000e+03 
737.891  2.19400000e+03 
736.999  2.12100000e+03 
736.106  2.14300000e+03 
735.214  2.21700000e+03 
734.321  2.14800000e+03 
733.429  2.16300000e+03 
732.537  2.19700000e+03 
731.644  2.20900000e+03 
730.752  2.13600000e+03 
729.859  2.12100000e+03 
728.967  2.14600000e+03 
728.074  2.07600000e+03 
727.182  2.24000000e+03 
726.290  2.13500000e+03 
725.397  2.15800000e+03 
724.505  2.14600000e+03 
723.612  2.07200000e+03 
722.720  2.17800000e+03 
721.828  2.07700000e+03 
720.935  2.13700000e+03 
720.043  2.05800000e+03 
719.150  2.07600000e+03 
718.258  2.07000000e+03 
717.365  2.09900000e+03 
716.473  2.06100000e+03 
715.581  2.01800000e+03 
714.688  2.11500000e+03 
713.796  2.04500000e+03 
712.903  2.02500000e+03 
712.011  2.06600000e+03 
711.118  2.03400000e+03 
710.226  2.01600000e+03 
709.334  1.99400000e+03 
708.441  2.02600000e+03 
707.549  2.02800000e+03 
706.656  1.94700000e+03 
705.764  2.00500000e+03 
704.872  1.99100000e+03 
703.979  1.93500000e+03 
703.087  2.05300000e+03 
702.194  1.91900000e+03 
701.302  1.90100000e+03 
700.409  1.97200000e+03 
699.517  1.95300000e+03 
698.625  1.93700000e+03 
697.732  1.95000000e+03 
696.840  1.92500000e+03 
695.947  1.90700000e+03 
695.055  1.89600000e+03 
694.163  1.91900000e+03 
693.270  1.88200000e+03 
692.378  1.88800000e+03 
691.485  2.00900000e+03 
690.593  1.86500000e+03 
689.700  1.84800000e+03 
688.808  1.79600000e+03 
687.916  1.83200000e+03 
687.023  1.85100000e+03 
686.131  1.80400000e+03 
685.238  1.78100000e+03 
684.346  1.80900000e+03 
683.453  1.74200000e+03 
682.561  1.79900000e+03 
681.669  1.78800000e+03 
680.776  1.71600000e+03 
679.884  1.79900000e+03 
678.991  1.75600000e+03 
678.099  1.70500000e+03 
677.207  1.68100000e+03 
676.314  1.75700000e+03 
675.422  1.74500000e+03 
674.529  1.52400000e+03 
673.637  1.74200000e+03 
672.744  1.74000000e+03 
671.852  1.70900000e+03 
670.960  1.65200000e+03 
670.067  1.65200000e+03 
669.175  1.68900000e+03 
668.282  1.59800000e+03 
667.390  1.62700000e+03 
666.498  1.60400000e+03 
665.605  1.52200000e+03 
664.713  1.55300000e+03 
663.820  1.52100000e+03 
662.928  1.57200000e+03 
662.035  1.54800000e+03 
661.143  1.48400000e+03 
660.251  1.45400000e+03 
659.358  1.54100000e+03 
658.466  1.60200000e+03 
657.573  1.67300000e+03 
656.681  1.72900000e+03 
655.788  1.54300000e+03 
654.896  1.42600000e+03 
654.004  1.34600000e+03 
653.111  1.31900000e+03 
652.219  1.28300000e+03 
651.326  1.32700000e+03 
650.434  1.36000000e+03 
649.542  1.39100000e+03 
648.649  1.36100000e+03 
647.757  1.46400000e+03 
646.864  1.63300000e+03 
645.972  1.77400000e+03 
645.079  1.80300000e+03 
644.187  1.50100000e+03 
643.295  1.17000000e+03 
642.402  1.10300000e+03 
641.510  1.00700000e+03 
640.617  1.04200000e+03 
639.725  1.10300000e+03 
638.833  1.05400000e+03 
637.940  1.12200000e+03 
637.048  1.08300000e+03 
636.155  1.08200000e+03 
635.263  1.09400000e+03 
634.370  1.04900000e+03 
633.478  1.08300000e+03 
632.586  1.06500000e+03 
631.693  1.00600000e+03 
630.801  1.05700000e+03 
629.908  1.06400000e+03 
629.016  1.09800000e+03 
628.123  1.00100000e+03 
627.231  1.13000000e+03 
626.339  1.01600000e+03 
625.446  9.92000000e+02 
624.554  1.09400000e+03 
623.661  1.07000000e+03 
622.769  1.01400000e+03 
621.877  1.10200000e+03 
620.984  1.03900000e+03 
620.092  1.02000000e+03 
619.199  1.06800000e+03 
618.307  1.04300000e+03 
617.414  1.16300000e+03 
616.522  1.05300000e+03 
615.630  1.05600000e+03 
614.737  1.10100000e+03 
613.845  1.08000000e+03 
612.952  1.10900000e+03 
612.060  1.06700000e+03 
611.167  1.09200000e+03 
610.275  1.03700000e+03 
609.383  1.05300000e+03 
608.490  1.08800000e+03 
607.598  1.09100000e+03 
606.705  1.07500000e+03 
605.813  1.11500000e+03 
604.921  1.02600000e+03 
604.028  1.08800000e+03 
603.136  1.06400000e+03 
602.243  9.75000000e+02 
601.351  1.12800000e+03 
600.458  1.14600000e+03 
599.566  1.05400000e+03 
598.674  1.06200000e+03 
597.781  1.03500000e+03 
596.889  1.01600000e+03 
595.996  1.06200000e+03 
595.104  1.04800000e+03 
594.212  1.07300000e+03 
593.319  1.11300000e+03 
592.427  1.07300000e+03 
591.534  1.05300000e+03 
590.642  1.11500000e+03 
589.749  1.06400000e+03 
588.857  1.03500000e+03 
587.965  1.08100000e+03 
587.072  1.08000000e+03 
586.180  1.14200000e+03 
585.287  1.08800000e+03 
584.395  1.10200000e+03 
583.502  1.06500000e+03 
582.610  1.08500000e+03 
581.718  1.00700000e+03 
580.825  1.04600000e+03 
579.933  1.04000000e+03 
579.040  1.03300000e+03 
578.148  1.07100000e+03 
577.256  1.15300000e+03 
576.363  1.08600000e+03 
575.471  1.03600000e+03 
574.578  1.04300000e+03 
573.686  1.06900000e+03 
572.793  9.77000000e+02 
571.901  1.01800000e+03 
571.009  1.01300000e+03 
570.116  1.05900000e+03 
569.224  9.76000000e+02 
568.331  9.68000000e+02 
567.439  1.05800000e+03 
566.547  9.91000000e+02 
565.654  1.06600000e+03 
564.762  1.05300000e+03 
563.869  1.05100000e+03 
562.977  1.10900000e+03 
562.084  1.06900000e+03 
561.192  1.09700000e+03 
560.300  1.05300000e+03 
559.407  1.09400000e+03 
558.515  1.05000000e+03 
557.622  1.01200000e+03 
556.730  9.75000000e+02 
555.837  1.02000000e+03 
554.945  8.83000000e+02 
554.053  8.79000000e+02 
553.160  9.28000000e+02 
552.268  8.76000000e+02 
551.375  7.95000000e+02 
550.483  7.80000000e+02 
549.591  7.75000000e+02 
548.698  7.73000000e+02 
547.806  6.91000000e+02 
546.913  7.26000000e+02 
546.021  6.73000000e+02 
545.128  6.38000000e+02 
544.236  6.56000000e+02 
543.344  6.64000000e+02 
542.451  7.46000000e+02 
541.559  1.25800000e+03 
540.666  2.12000000e+03 
539.774  2.63000000e+03 
538.882  2.12700000e+03 
537.989  1.69600000e+03 
537.097  1.36700000e+03 
536.204  6.87000000e+02 
535.312  5.23000000e+02 
534.419  5.20000000e+02 
533.527  4.96000000e+02 
532.635  5.07000000e+02 
531.742  4.90000000e+02 
530.850  5.02000000e+02 
529.957  4.70000000e+02 
529.065  5.48000000e+02 
528.172  5.24000000e+02 
527.280  5.09000000e+02 
526.388  4.90000000e+02 
525.495  5.36000000e+02 
524.603  5.20000000e+02 
523.710  5.05000000e+02 
522.818  4.92000000e+02 
521.926  4.83000000e+02 
521.033  4.88000000e+02 
520.141  4.52000000e+02 
519.248  4.98000000e+02 
518.356  4.91000000e+02 
517.463  5.06000000e+02 
516.571  4.85000000e+02 
515.679  5.04000000e+02 
514.786  5.13000000e+02 
513.894  4.80000000e+02 
513.001  5.00000000e+02 
512.109  4.87000000e+02 
511.217  4.83000000e+02 
510.324  5.10000000e+02 
509.432  4.98000000e+02 
508.539  5.08000000e+02 
507.647  5.00000000e+02 
506.754  5.30000000e+02 
505.862  5.94000000e+02 
504.970  5.43000000e+02 
504.077  5.12000000e+02 
[ Region 7 Curve ]
BEcenter= 875.000 
BEwidth= -241.846
Excitation= 1486.600
Time_p_channel= 15.360  
Size= 272
995.923  4.13200000e+03 
995.030  4.41700000e+03 
994.138  4.35200000e+03 
993.246  4.24700000e+03 
992.353  4.11700000e+03 
991.461  4.14100000e+03 
990.568  4.14300000e+03 
989.676  4.09600000e+03 
988.783  4.10900000e+03 
987.891  4.14000000e+03 
986.999  4.11500000e+03 
986.106  3.98200000e+03 
985.214  3.98900000e+03 
984.321  4.12000000e+03 
983.429  3.95700000e+03 
982.537  4.03300000e+03 
981.644  4.13700000e+03 
980.752  4.20200000e+03 
979.859  4.15900000e+03 
978.967  4.10500000e+03 
978.074  4.12900000e+03 
977.182  4.04500000e+03 
976.290  4.03800000e+03 
975.397  3.97400000e+03 
974.505  3.96600000e+03 
973.612  4.02600000e+03 
972.720  3.88200000e+03 
971.828  3.78600000e+03 
970.935  3.72900000e+03 
970.043  3.68800000e+03 
969.150  3.69700000e+03 
968.258  3.55000000e+03 
967.365  3.60400000e+03 
966.473  3.60800000e+03 
965.581  3.55200000e+03 
964.688  3.55200000e+03 
963.796  3.68400000e+03 
962.903  3.49500000e+03 
962.011  3.53300000e+03 
961.118  3.54900000e+03 
960.226  3.52400000e+03 
959.334  3.45800000e+03 
958.441  3.44800000e+03 
957.549  3.42300000e+03 
956.656  3.46100000e+03 
955.764  3.44600000e+03 
954.872  3.48500000e+03 
953.979  3.42300000e+03 
953.087  3.43200000e+03 
952.194  3.38300000e+03 
951.302  3.44100000e+03 
950.409  3.37200000e+03 
949.517  3.36600000e+03 
948.625  3.38800000e+03 
947.732  3.38700000e+03 
946.840  3.30200000e+03 
945.947  3.22900000e+03 
945.055  3.35400000e+03 
944.163  3.38000000e+03 
943.270  3.28000000e+03 
942.378  3.21500000e+03 
941.485  3.29900000e+03 
940.593  3.18000000e+03 
939.700  3.27000000e+03 
938.808  3.26200000e+03 
937.916  3.13900000e+03 
937.023  3.23800000e+03 
936.131  3.29500000e+03 
935.238  3.24000000e+03 
934.346  3.14500000e+03 
933.453  3.21000000e+03 
932.561  3.35400000e+03 
931.669  3.23500000e+03 
930.776  3.23400000e+03 
929.884  3.13500000e+03 
928.991  3.11400000e+03 
928.099  3.22000000e+03 
927.207  3.09000000e+03 
926.314  3.20000000e+03 
925.422  3.13600000e+03 
924.529  3.11900000e+03 
923.637  3.09100000e+03 
922.744  3.16400000e+03 
921.852  3.06600000e+03 
920.960  3.08000000e+03 
920.067  3.10300000e+03 
919.175  3.06000000e+03 
918.282  3.10600000e+03 
917.390  3.02400000e+03 
916.498  3.04600000e+03 
915.605  3.10200000e+03 
914.713  3.13400000e+03 
913.820  3.00700000e+03 
912.928  3.00800000e+03 
912.035  3.07200000e+03 
911.143  3.05700000e+03 
910.251  3.04200000e+03 
909.358  3.10300000e+03 
908.466  3.02500000e+03 
907.573  2.99400000e+03 
906.681  3.08100000e+03 
905.788  2.99000000e+03 
904.896  3.02300000e+03 
904.004  2.99000000e+03 
903.111  2.93500000e+03 
902.219  2.99000000e+03 
901.326  2.97800000e+03 
900.434  2.97400000e+03 
899.542  2.82800000e+03 
898.649  2.91400000e+03 
897.757  2.94600000e+03 
896.864  2.90700000e+03 
895.972  2.98300000e+03 
895.079  2.77000000e+03 
894.187  2.82800000e+03 
893.295  2.88200000e+03 
892.402  2.92100000e+03 
891.510  2.86100000e+03 
890.617  2.87300000e+03 
889.725  2.85000000e+03 
888.833  2.80800000e+03 
887.940  2.78800000e+03 
887.048  2.85800000e+03 
886.155  2.85000000e+03 
885.263  2.84900000e+03 
884.370  2.70500000e+03 
883.478  2.71500000e+03 
882.586  2.81400000e+03 
881.693  2.91700000e+03 
880.801  2.84200000e+03 
879.908  2.86300000e+03 
879.016  2.86900000e+03 
878.123  2.73400000e+03 
877.231  2.81800000e+03 
876.339  2.78700000e+03 
875.446  2.83200000e+03 
874.554  2.78000000e+03 
873.661  2.74800000e+03 
872.769  2.70900000e+03 
871.877  2.75000000e+03 
870.984  2.82000000e+03 
870.092  2.89200000e+03 
869.199  2.75600000e+03 
868.307  2.77900000e+03 
867.414  2.66000000e+03 
866.522  2.76000000e+03 
865.630  2.72500000e+03 
864.737  2.81000000e+03 
863.845  2.76200000e+03 
862.952  2.78500000e+03 
862.060  2.72800000e+03 
861.167  2.75900000e+03 
860.275  2.72100000e+03 
859.383  2.85500000e+03 
858.490  2.72300000e+03 
857.598  2.72900000e+03 
856.705  2.65300000e+03 
855.813  2.80600000e+03 
854.921  2.68700000e+03 
854.028  2.76000000e+03 
853.136  2.74000000e+03 
852.243  2.70700000e+03 
851.351  2.65900000e+03 
850.458  2.68600000e+03 
849.566  2.63800000e+03 
848.674  2.74100000e+03 
847.781  2.61500000e+03 
846.889  2.60700000e+03 
845.996  2.59200000e+03 
845.104  2.74700000e+03 
844.212  2.65700000e+03 
843.319  2.63500000e+03 
842.427  2.56000000e+03 
841.534  2.66900000e+03 
840.642  2.56900000e+03 
839.749  2.57400000e+03 
838.857  2.61800000e+03 
837.965  2.56800000e+03 
837.072  2.65800000e+03 
836.180  2.69300000e+03 
835.287  2.55000000e+03 
834.395  2.58600000e+03 
833.502  2.66900000e+03 
832.610  2.54900000e+03 
831.718  2.52300000e+03 
830.825  2.51100000e+03 
829.933  2.53800000e+03 
829.040  2.68600000e+03 
828.148  2.58400000e+03 
827.256  2.59300000e+03 
826.363  2.59200000e+03 
825.471  2.59500000e+03 
824.578  2.57900000e+03 
823.686  2.62100000e+03 
822.793  2.48100000e+03 
821.901  2.57100000e+03 
821.009  2.52600000e+03 
820.116  2.55300000e+03 
819.224  2.56000000e+03 
818.331  2.58400000e+03 
817.439  2.50300000e+03 
816.547  2.51000000e+03 
815.654  2.55100000e+03 
814.762  2.61200000e+03 
813.869  2.48500000e+03 
812.977  2.57900000e+03 
812.084  2.60100000e+03 
811.192  2.57000000e+03 
810.300  2.51100000e+03 
809.407  2.54800000e+03 
808.515  2.51000000e+03 
807.622  2.46400000e+03 
806.730  2.49200000e+03 
805.837  2.41000000e+03 
804.945  2.52500000e+03 
804.053  2.52800000e+03 
803.160  2.49300000e+03 
802.268  2.40700000e+03 
801.375  2.48100000e+03 
800.483  2.50100000e+03 
799.591  2.45800000e+03 
798.698  2.44200000e+03 
797.806  2.37100000e+03 
796.913  2.43600000e+03 
796.021  2.45500000e+03 
795.128  2.42600000e+03 
794.236  2.36800000e+03 
793.344  2.39700000e+03 
792.451  2.42200000e+03 
791.559  2.44000000e+03 
790.666  2.44900000e+03 
789.774  2.36200000e+03 
788.882  2.42800000e+03 
787.989  2.46100000e+03 
787.097  2.42000000e+03 
786.204  2.32300000e+03 
785.312  2.36700000e+03 
784.419  2.43300000e+03 
783.527  2.42200000e+03 
782.635  2.40300000e+03 
781.742  2.40000000e+03 
780.850  2.39300000e+03 
779.957  2.33200000e+03 
779.065  2.39000000e+03 
778.172  2.40500000e+03 
777.280  2.34400000e+03 
776.388  2.40700000e+03 
775.495  2.29000000e+03 
774.603  2.31900000e+03 
773.710  2.44100000e+03 
772.818  2.30500000e+03 
771.926  2.24300000e+03 
771.033  2.34200000e+03 
770.141  2.25900000e+03 
769.248  2.27900000e+03 
768.356  2.23200000e+03 
767.463  2.40600000e+03 
766.571  2.30200000e+03 
765.679  2.27200000e+03 
764.786  2.28400000e+03 
763.894  2.18000000e+03 
763.001  2.32600000e+03 
762.109  2.26500000e+03 
761.217  2.19100000e+03 
760.324  2.24200000e+03 
759.432  2.25600000e+03 
758.539  2.24900000e+03 
757.647  2.30900000e+03 
756.754  2.32700000e+03 
755.862  2.21000000e+03 
754.970  2.37300000e+03 
754.077  2.23800000e+03 
