EXPERIMENT FILE
Version = 2

[ Experiment Parameters ]
Experiment Description= <none> 
Number_of_Regions_in_Experiment= 1 

Original_File_name= C:\alexesca\data\0907_400W_38Deg.xps 
Instrument= HP ESCA West
Date= 09-07-2012
Time=  15:36:22

[ Layer Parameters ]
Layer_Type= XPS

[ Region 1 Parameters ]
Region_Description = Au Dithered Scan Test              
BEcenter(eV) = 91.000000
BEwidth(eV) = 10.000000
BEstep(eV) = 0.035937
Dwell_Time(sec) = 1.000000
N_o_scans = 1  
N_o_Channels = 278  
Scan_mode = 0  (DITHERED)

[ L= 1 R= 1 ]
BEcenter= 91.000  
BEwidth= -9.955  
Excitation= 1486.600
Time_p_channel= 256.000 
Size= 278
95.977   4.17000000e+02 
95.941   3.90000000e+02 
95.905   3.96000000e+02 
95.870   4.49000000e+02 
95.834   4.55000000e+02 
95.798   4.38000000e+02 
95.762   4.30000000e+02 
95.726   4.78000000e+02 
95.690   4.48000000e+02 
95.654   4.52000000e+02 
95.618   4.50000000e+02 
95.582   4.73000000e+02 
95.546   4.54000000e+02 
95.510   4.82000000e+02 
95.474   4.92000000e+02 
95.438   4.90000000e+02 
95.402   5.18000000e+02 
95.366   5.03000000e+02 
95.330   5.17000000e+02 
95.295   4.66000000e+02 
95.259   4.63000000e+02 
95.223   4.90000000e+02 
95.187   5.24000000e+02 
95.151   4.82000000e+02 
95.115   4.66000000e+02 
95.079   4.41000000e+02 
95.043   4.63000000e+02 
95.007   4.79000000e+02 
94.971   4.09000000e+02 
94.935   4.52000000e+02 
94.899   4.19000000e+02 
94.863   3.80000000e+02 
94.827   3.81000000e+02 
94.791   3.39000000e+02 
94.755   3.68000000e+02 
94.720   3.08000000e+02 
94.684   3.02000000e+02 
94.648   2.74000000e+02 
94.612   2.59000000e+02 
94.576   2.50000000e+02 
94.540   2.53000000e+02 
94.504   2.17000000e+02 
94.468   2.18000000e+02 
94.432   1.79000000e+02 
94.396   1.89000000e+02 
94.360   1.69000000e+02 
94.324   1.77000000e+02 
94.288   1.53000000e+02 
94.252   1.50000000e+02 
94.216   1.46000000e+02 
94.180   1.38000000e+02 
94.145   1.43000000e+02 
94.109   1.57000000e+02 
94.073   1.42000000e+02 
94.037   1.42000000e+02 
94.001   1.28000000e+02 
93.965   1.18000000e+02 
93.929   1.46000000e+02 
93.893   1.53000000e+02 
93.857   1.31000000e+02 
93.821   1.29000000e+02 
93.785   1.50000000e+02 
93.749   1.26000000e+02 
93.713   1.50000000e+02 
93.677   1.28000000e+02 
93.641   1.21000000e+02 
93.605   1.54000000e+02 
93.570   1.19000000e+02 
93.534   1.36000000e+02 
93.498   1.58000000e+02 
93.462   1.51000000e+02 
93.426   1.65000000e+02 
93.390   1.62000000e+02 
93.354   1.47000000e+02 
93.318   1.58000000e+02 
93.282   1.45000000e+02 
93.246   1.95000000e+02 
93.210   1.80000000e+02 
93.174   1.89000000e+02 
93.138   2.03000000e+02 
93.102   2.02000000e+02 
93.066   2.05000000e+02 
93.030   1.96000000e+02 
92.995   2.07000000e+02 
92.959   2.08000000e+02 
92.923   2.52000000e+02 
92.887   2.47000000e+02 
92.851   2.73000000e+02 
92.815   2.75000000e+02 
92.779   2.63000000e+02 
92.743   2.79000000e+02 
92.707   2.87000000e+02 
92.671   3.13000000e+02 
92.635   3.12000000e+02 
92.599   3.09000000e+02 
92.563   3.39000000e+02 
92.527   3.83000000e+02 
92.491   4.15000000e+02 
92.455   3.45000000e+02 
92.420   3.74000000e+02 
92.384   4.20000000e+02 
92.348   4.22000000e+02 
92.312   4.39000000e+02 
92.276   4.66000000e+02 
92.240   4.82000000e+02 
92.204   4.48000000e+02 
92.168   4.52000000e+02 
92.132   4.91000000e+02 
92.096   5.25000000e+02 
92.060   4.88000000e+02 
92.024   5.80000000e+02 
91.988   5.22000000e+02 
91.952   5.42000000e+02 
91.916   5.64000000e+02 
91.880   6.38000000e+02 
91.845   5.72000000e+02 
91.809   5.57000000e+02 
91.773   5.29000000e+02 
91.737   6.04000000e+02 
91.701   6.02000000e+02 
91.665   5.91000000e+02 
91.629   6.02000000e+02 
91.593   5.41000000e+02 
91.557   6.14000000e+02 
91.521   5.37000000e+02 
91.485   5.67000000e+02 
91.449   5.14000000e+02 
91.413   5.23000000e+02 
91.377   5.60000000e+02 
91.341   4.87000000e+02 
91.305   5.02000000e+02 
91.270   4.75000000e+02 
91.234   4.46000000e+02 
91.198   4.13000000e+02 
91.162   4.15000000e+02 
91.126   3.45000000e+02 
91.090   3.54000000e+02 
91.054   3.20000000e+02 
91.018   3.02000000e+02 
90.982   2.81000000e+02 
90.946   2.36000000e+02 
90.910   2.44000000e+02 
90.874   2.25000000e+02 
90.838   2.00000000e+02 
90.802   1.89000000e+02 
90.766   1.67000000e+02 
90.730   1.68000000e+02 
90.695   1.40000000e+02 
90.659   1.27000000e+02 
90.623   1.24000000e+02 
90.587   1.24000000e+02 
90.551   8.80000000e+01 
90.515   1.02000000e+02 
90.479   9.70000000e+01 
90.443   8.40000000e+01 
90.407   8.90000000e+01 
90.371   9.10000000e+01 
90.335   9.70000000e+01 
90.299   8.20000000e+01 
90.263   6.60000000e+01 
90.227   6.50000000e+01 
90.191   6.90000000e+01 
90.155   5.70000000e+01 
90.120   7.70000000e+01 
90.084   7.00000000e+01 
90.048   7.60000000e+01 
90.012   6.00000000e+01 
89.976   6.70000000e+01 
89.940   6.00000000e+01 
89.904   5.50000000e+01 
89.868   4.90000000e+01 
89.832   5.80000000e+01 
89.796   5.60000000e+01 
89.760   5.70000000e+01 
89.724   5.50000000e+01 
89.688   6.40000000e+01 
89.652   5.20000000e+01 
89.616   6.00000000e+01 
89.580   5.60000000e+01 
89.545   4.30000000e+01 
89.509   5.50000000e+01 
89.473   5.70000000e+01 
89.437   5.30000000e+01 
89.401   5.00000000e+01 
89.365   7.20000000e+01 
89.329   4.20000000e+01 
89.293   5.50000000e+01 
89.257   5.20000000e+01 
89.221   5.20000000e+01 
89.185   5.40000000e+01 
89.149   4.40000000e+01 
89.113   3.20000000e+01 
89.077   4.10000000e+01 
89.041   4.10000000e+01 
89.005   4.20000000e+01 
88.970   4.40000000e+01 
88.934   3.80000000e+01 
88.898   5.60000000e+01 
88.862   5.50000000e+01 
88.826   4.10000000e+01 
88.790   5.10000000e+01 
88.754   4.60000000e+01 
88.718   5.60000000e+01 
88.682   3.80000000e+01 
88.646   4.30000000e+01 
88.610   5.60000000e+01 
88.574   5.00000000e+01 
88.538   5.00000000e+01 
88.502   5.30000000e+01 
88.466   4.60000000e+01 
88.430   4.80000000e+01 
88.395   4.60000000e+01 
88.359   5.00000000e+01 
88.323   4.20000000e+01 
88.287   4.50000000e+01 
88.251   4.40000000e+01 
88.215   4.60000000e+01 
88.179   4.50000000e+01 
88.143   4.80000000e+01 
88.107   3.70000000e+01 
88.071   6.00000000e+01 
88.035   3.50000000e+01 
87.999   4.30000000e+01 
87.963   3.20000000e+01 
87.927   3.20000000e+01 
87.891   4.60000000e+01 
87.855   4.20000000e+01 
87.820   4.80000000e+01 
87.784   4.70000000e+01 
87.748   4.40000000e+01 
87.712   4.60000000e+01 
87.676   5.20000000e+01 
87.640   3.90000000e+01 
87.604   3.90000000e+01 
87.568   4.20000000e+01 
87.532   4.00000000e+01 
87.496   4.60000000e+01 
87.460   4.20000000e+01 
87.424   2.70000000e+01 
87.388   4.20000000e+01 
87.352   3.30000000e+01 
87.316   3.70000000e+01 
87.280   4.20000000e+01 
87.245   2.90000000e+01 
87.209   5.10000000e+01 
87.173   3.30000000e+01 
87.137   4.60000000e+01 
87.101   4.10000000e+01 
87.065   4.20000000e+01 
87.029   4.10000000e+01 
86.993   3.10000000e+01 
86.957   3.90000000e+01 
86.921   4.10000000e+01 
86.885   4.30000000e+01 
86.849   4.70000000e+01 
86.813   6.10000000e+01 
86.777   4.30000000e+01 
86.741   4.30000000e+01 
86.705   4.00000000e+01 
86.670   5.20000000e+01 
86.634   3.60000000e+01 
86.598   5.40000000e+01 
86.562   3.80000000e+01 
86.526   4.50000000e+01 
86.490   5.10000000e+01 
86.454   5.50000000e+01 
86.418   4.30000000e+01 
86.382   4.00000000e+01 
86.346   4.50000000e+01 
86.310   4.60000000e+01 
86.274   4.00000000e+01 
86.238   4.20000000e+01 
86.202   4.30000000e+01 
86.166   3.70000000e+01 
86.130   5.00000000e+01 
86.095   4.10000000e+01 
86.059   4.20000000e+01 
86.023   3.60000000e+01 

