EXPERIMENT FILE
Version = 2

[ Experiment Parameters ]
Experiment Description= <none> 
Number_of_Regions_in_Experiment= 1 

Original_File_name= C:\alexesca\data\0907_400W_44Deg.xps 
Instrument= HP ESCA West
Date= 09-07-2012
Time=  16:40:26

[ Layer Parameters ]
Layer_Type= XPS

[ Region 1 Parameters ]
Region_Description = Au Dithered Scan Test              
BEcenter(eV) = 91.000000
BEwidth(eV) = 10.000000
BEstep(eV) = 0.035938
Dwell_Time(sec) = 1.000000
N_o_scans = 1  
N_o_Channels = 278  
Scan_mode = 0  (DITHERED)

[ L= 1 R= 1 ]
BEcenter= 91.000  
BEwidth= -9.955  
Excitation= 1486.600
Time_p_channel= 256.000 
Size= 278
95.977   4.66000000e+02 
95.941   4.76000000e+02 
95.905   4.77000000e+02 
95.870   4.52000000e+02 
95.834   4.56000000e+02 
95.798   4.53000000e+02 
95.762   4.19000000e+02 
95.726   4.06000000e+02 
95.690   3.95000000e+02 
95.654   3.33000000e+02 
95.618   3.55000000e+02 
95.582   3.24000000e+02 
95.546   3.51000000e+02 
95.510   3.03000000e+02 
95.474   2.96000000e+02 
95.438   2.56000000e+02 
95.402   2.67000000e+02 
95.366   2.60000000e+02 
95.330   2.20000000e+02 
95.295   2.22000000e+02 
95.259   1.85000000e+02 
95.223   1.84000000e+02 
95.187   1.76000000e+02 
95.151   1.81000000e+02 
95.115   1.95000000e+02 
95.079   1.59000000e+02 
95.043   1.64000000e+02 
95.007   1.42000000e+02 
94.971   1.48000000e+02 
94.935   1.38000000e+02 
94.899   1.60000000e+02 
94.863   1.30000000e+02 
94.827   1.39000000e+02 
94.791   1.44000000e+02 
94.755   1.36000000e+02 
94.720   1.19000000e+02 
94.684   1.13000000e+02 
94.648   1.08000000e+02 
94.612   1.31000000e+02 
94.576   1.24000000e+02 
94.540   1.15000000e+02 
94.504   1.35000000e+02 
94.468   1.09000000e+02 
94.432   1.23000000e+02 
94.396   1.24000000e+02 
94.360   1.13000000e+02 
94.324   1.10000000e+02 
94.288   1.02000000e+02 
94.252   1.34000000e+02 
94.216   1.10000000e+02 
94.180   1.22000000e+02 
94.145   1.18000000e+02 
94.109   1.10000000e+02 
94.073   1.17000000e+02 
94.037   1.09000000e+02 
94.001   1.20000000e+02 
93.965   1.24000000e+02 
93.929   1.37000000e+02 
93.893   1.26000000e+02 
93.857   1.47000000e+02 
93.821   1.38000000e+02 
93.785   1.49000000e+02 
93.749   1.42000000e+02 
93.713   1.67000000e+02 
93.677   1.60000000e+02 
93.641   1.54000000e+02 
93.605   1.77000000e+02 
93.570   1.74000000e+02 
93.534   1.87000000e+02 
93.498   2.28000000e+02 
93.462   2.25000000e+02 
93.426   2.40000000e+02 
93.390   2.36000000e+02 
93.354   2.43000000e+02 
93.318   2.30000000e+02 
93.282   2.77000000e+02 
93.246   2.61000000e+02 
93.210   3.12000000e+02 
93.174   3.05000000e+02 
93.138   3.09000000e+02 
93.102   3.70000000e+02 
93.066   3.54000000e+02 
93.030   3.44000000e+02 
92.995   3.34000000e+02 
92.959   3.97000000e+02 
92.923   4.35000000e+02 
92.887   4.46000000e+02 
92.851   4.65000000e+02 
92.815   4.37000000e+02 
92.779   4.75000000e+02 
92.743   4.19000000e+02 
92.707   4.64000000e+02 
92.671   4.71000000e+02 
92.635   5.38000000e+02 
92.599   4.82000000e+02 
92.563   5.16000000e+02 
92.527   5.41000000e+02 
92.491   5.78000000e+02 
92.455   5.24000000e+02 
92.420   5.71000000e+02 
92.384   5.48000000e+02 
92.348   5.42000000e+02 
92.312   5.77000000e+02 
92.276   5.42000000e+02 
92.240   5.14000000e+02 
92.204   5.03000000e+02 
92.168   4.80000000e+02 
92.132   5.73000000e+02 
92.096   4.72000000e+02 
92.060   4.71000000e+02 
92.024   4.78000000e+02 
91.988   4.07000000e+02 
91.952   4.10000000e+02 
91.916   3.93000000e+02 
91.880   3.66000000e+02 
91.845   3.45000000e+02 
91.809   3.17000000e+02 
91.773   2.82000000e+02 
91.737   2.68000000e+02 
91.701   2.75000000e+02 
91.665   2.63000000e+02 
91.629   2.11000000e+02 
91.593   2.02000000e+02 
91.557   1.93000000e+02 
91.521   1.78000000e+02 
91.485   1.62000000e+02 
91.449   1.45000000e+02 
91.413   1.40000000e+02 
91.377   1.55000000e+02 
91.341   1.48000000e+02 
91.305   1.28000000e+02 
91.270   1.11000000e+02 
91.234   1.02000000e+02 
91.198   1.11000000e+02 
91.162   1.07000000e+02 
91.126   9.50000000e+01 
91.090   9.70000000e+01 
91.054   9.20000000e+01 
91.018   9.40000000e+01 
90.982   7.10000000e+01 
90.946   7.40000000e+01 
90.910   7.20000000e+01 
90.874   5.80000000e+01 
90.838   7.50000000e+01 
90.802   7.30000000e+01 
90.766   6.00000000e+01 
90.730   7.10000000e+01 
90.695   4.70000000e+01 
90.659   5.70000000e+01 
90.623   5.10000000e+01 
90.587   5.70000000e+01 
90.551   5.90000000e+01 
90.515   4.40000000e+01 
90.479   4.00000000e+01 
90.443   4.90000000e+01 
90.407   5.60000000e+01 
90.371   4.50000000e+01 
90.335   4.20000000e+01 
90.299   4.10000000e+01 
90.263   5.50000000e+01 
90.227   5.60000000e+01 
90.191   4.30000000e+01 
90.155   3.80000000e+01 
90.120   3.70000000e+01 
90.084   4.80000000e+01 
90.048   4.50000000e+01 
90.012   4.70000000e+01 
89.976   5.20000000e+01 
89.940   3.90000000e+01 
89.904   3.70000000e+01 
89.868   3.20000000e+01 
89.832   3.80000000e+01 
89.796   3.80000000e+01 
89.760   3.20000000e+01 
89.724   4.10000000e+01 
89.688   3.30000000e+01 
89.652   5.20000000e+01 
89.616   3.10000000e+01 
89.580   4.10000000e+01 
89.545   4.20000000e+01 
89.509   3.60000000e+01 
89.473   3.90000000e+01 
89.437   3.90000000e+01 
89.401   3.40000000e+01 
89.365   4.60000000e+01 
89.329   3.60000000e+01 
89.293   4.40000000e+01 
89.257   4.30000000e+01 
89.221   3.30000000e+01 
89.185   3.80000000e+01 
89.149   3.60000000e+01 
89.113   3.20000000e+01 
89.077   3.70000000e+01 
89.041   3.40000000e+01 
89.005   2.10000000e+01 
88.970   4.10000000e+01 
88.934   3.10000000e+01 
88.898   3.20000000e+01 
88.862   3.70000000e+01 
88.826   4.80000000e+01 
88.790   3.30000000e+01 
88.754   3.20000000e+01 
88.718   3.50000000e+01 
88.682   3.90000000e+01 
88.646   4.90000000e+01 
88.610   3.60000000e+01 
88.574   2.70000000e+01 
88.538   2.50000000e+01 
88.502   2.90000000e+01 
88.466   4.10000000e+01 
88.430   3.90000000e+01 
88.395   3.40000000e+01 
88.359   2.90000000e+01 
88.323   3.10000000e+01 
88.287   3.80000000e+01 
88.251   4.00000000e+01 
88.215   4.30000000e+01 
88.179   3.70000000e+01 
88.143   3.70000000e+01 
88.107   4.00000000e+01 
88.071   2.90000000e+01 
88.035   3.50000000e+01 
87.999   2.60000000e+01 
87.963   2.80000000e+01 
87.927   2.70000000e+01 
87.891   3.60000000e+01 
87.855   3.90000000e+01 
87.820   3.30000000e+01 
87.784   4.50000000e+01 
87.748   3.50000000e+01 
87.712   3.30000000e+01 
87.676   3.10000000e+01 
87.640   2.80000000e+01 
87.604   3.60000000e+01 
87.568   4.50000000e+01 
87.532   2.90000000e+01 
87.496   3.40000000e+01 
87.460   3.00000000e+01 
87.424   3.30000000e+01 
87.388   3.30000000e+01 
87.352   3.70000000e+01 
87.316   2.20000000e+01 
87.280   3.20000000e+01 
87.245   4.30000000e+01 
87.209   3.40000000e+01 
87.173   3.00000000e+01 
87.137   2.20000000e+01 
87.101   2.60000000e+01 
87.065   3.70000000e+01 
87.029   2.90000000e+01 
86.993   3.60000000e+01 
86.957   3.80000000e+01 
86.921   3.60000000e+01 
86.885   4.00000000e+01 
86.849   2.60000000e+01 
86.813   3.40000000e+01 
86.777   4.50000000e+01 
86.741   3.30000000e+01 
86.705   2.90000000e+01 
86.670   3.70000000e+01 
86.634   3.60000000e+01 
86.598   4.50000000e+01 
86.562   3.90000000e+01 
86.526   2.40000000e+01 
86.490   2.90000000e+01 
86.454   4.30000000e+01 
86.418   3.60000000e+01 
86.382   3.40000000e+01 
86.346   2.60000000e+01 
86.310   3.50000000e+01 
86.274   3.10000000e+01 
86.238   4.00000000e+01 
86.202   3.50000000e+01 
86.166   3.10000000e+01 
86.130   2.50000000e+01 
86.095   3.60000000e+01 
86.059   2.30000000e+01 
86.023   3.30000000e+01 

