EXPERIMENT FILE
Version = 2

[ Experiment Parameters ]
Experiment Description= Glance 
Number_of_Regions_in_Experiment= 1 

Original_File_name= C:\alexesca\data\New Folder\Idea.xps 
Instrument= HP ESCA West
Date= 10-28-2014
Time=  12:42:40

[ Layer Parameters ]
Layer_Type= XPS

[ Region 1 Parameters ]
Region_Description = Quick_sweep_0.5eVstep_x1           
BEcenter(eV) = 575.000000
BEwidth(eV) = 1152.000000
BEstep(eV) = 0.503125
Dwell_Time(sec) = 1.000000
N_o_scans = 1  
N_o_Channels = 2290  
Scan_mode = 0  (DITHERED)

[ L= 1 R= 1 ]
BEcenter= 575.000 
BEwidth= -1151.653
Excitation= 1486.600
Time_p_channel= 18.286  
Size= 2290
1150.827 6.64700000e+03 
1150.323 6.66500000e+03 
1149.820 6.55100000e+03 
1149.317 6.74000000e+03 
1148.814 6.65000000e+03 
1148.311 6.70800000e+03 
1147.808 6.59200000e+03 
1147.305 6.55500000e+03 
1146.802 6.56600000e+03 
1146.298 6.49400000e+03 
1145.795 6.50900000e+03 
1145.292 6.57200000e+03 
1144.789 6.36400000e+03 
1144.286 6.51000000e+03 
1143.783 6.43900000e+03 
1143.280 6.30800000e+03 
1142.777 6.61500000e+03 
1142.273 6.45800000e+03 
1141.770 6.32700000e+03 
1141.267 6.55300000e+03 
1140.764 6.36400000e+03 
1140.261 6.45000000e+03 
1139.758 6.33300000e+03 
1139.255 6.41100000e+03 
1138.752 6.49200000e+03 
1138.248 6.53200000e+03 
1137.745 6.41700000e+03 
1137.242 6.49800000e+03 
1136.739 6.47200000e+03 
1136.236 6.53600000e+03 
1135.733 6.33300000e+03 
1135.230 6.53400000e+03 
1134.727 6.45200000e+03 
1134.223 6.48300000e+03 
1133.720 6.42900000e+03 
1133.217 6.37200000e+03 
1132.714 6.40400000e+03 
1132.211 6.37800000e+03 
1131.708 6.30500000e+03 
1131.205 6.57700000e+03 
1130.702 6.42000000e+03 
1130.198 6.40700000e+03 
1129.695 6.39100000e+03 
1129.192 6.35800000e+03 
1128.689 6.40200000e+03 
1128.186 6.34700000e+03 
1127.683 6.31200000e+03 
1127.180 6.41000000e+03 
1126.677 6.33300000e+03 
1126.173 6.37100000e+03 
1125.670 6.30300000e+03 
1125.167 6.20400000e+03 
1124.664 6.31000000e+03 
1124.161 6.20900000e+03 
1123.658 6.25300000e+03 
1123.155 6.17600000e+03 
1122.652 6.39900000e+03 
1122.148 6.33300000e+03 
1121.645 6.23000000e+03 
1121.142 6.15900000e+03 
1120.639 6.25800000e+03 
1120.136 6.20700000e+03 
1119.633 6.29400000e+03 
1119.130 6.28600000e+03 
1118.627 6.36000000e+03 
1118.123 6.31000000e+03 
1117.620 6.35700000e+03 
1117.117 6.29500000e+03 
1116.614 6.15700000e+03 
1116.111 6.21800000e+03 
1115.608 6.19900000e+03 
1115.105 6.19600000e+03 
1114.602 6.21400000e+03 
1114.098 6.02300000e+03 
1113.595 6.18700000e+03 
1113.092 6.12600000e+03 
1112.589 6.11700000e+03 
1112.086 6.20500000e+03 
1111.583 6.27600000e+03 
1111.080 6.16800000e+03 
1110.577 5.97000000e+03 
1110.073 6.14900000e+03 
1109.570 6.16900000e+03 
1109.067 6.11300000e+03 
1108.564 6.21200000e+03 
1108.061 6.23500000e+03 
1107.558 6.20400000e+03 
1107.055 6.17000000e+03 
1106.552 6.14700000e+03 
1106.048 6.24500000e+03 
1105.545 6.30000000e+03 
1105.042 6.26900000e+03 
1104.539 6.27800000e+03 
1104.036 6.11400000e+03 
1103.533 6.06300000e+03 
1103.030 6.12900000e+03 
1102.527 6.09800000e+03 
1102.023 6.10900000e+03 
1101.520 6.02500000e+03 
1101.017 5.95500000e+03 
1100.514 6.03700000e+03 
1100.011 5.88800000e+03 
1099.508 5.89100000e+03 
1099.005 5.84600000e+03 
1098.502 5.76800000e+03 
1097.998 5.85000000e+03 
1097.495 5.88300000e+03 
1096.992 5.69000000e+03 
1096.489 5.78000000e+03 
1095.986 5.79100000e+03 
1095.483 5.88800000e+03 
1094.980 5.87000000e+03 
1094.477 5.70100000e+03 
1093.973 5.72600000e+03 
1093.470 5.85800000e+03 
1092.967 5.68800000e+03 
1092.464 5.81200000e+03 
1091.961 5.65400000e+03 
1091.458 5.80700000e+03 
1090.955 5.51000000e+03 
1090.452 5.81700000e+03 
1089.948 5.81100000e+03 
1089.445 5.84500000e+03 
1088.942 5.73400000e+03 
1088.439 5.58200000e+03 
1087.936 5.61900000e+03 
1087.433 5.67100000e+03 
1086.930 5.68200000e+03 
1086.427 5.71400000e+03 
1085.923 5.65400000e+03 
1085.420 5.75700000e+03 
1084.917 5.71400000e+03 
1084.414 5.61500000e+03 
1083.911 5.54300000e+03 
1083.408 5.75500000e+03 
1082.905 5.56400000e+03 
1082.402 5.70500000e+03 
1081.898 5.67100000e+03 
1081.395 5.71800000e+03 
1080.892 5.70300000e+03 
1080.389 5.66600000e+03 
1079.886 5.70200000e+03 
1079.383 5.86600000e+03 
1078.880 5.63200000e+03 
1078.377 5.72200000e+03 
1077.873 5.73800000e+03 
1077.370 5.57500000e+03 
1076.867 5.58000000e+03 
1076.364 5.53100000e+03 
1075.861 5.57300000e+03 
1075.358 5.65500000e+03 
1074.855 5.74800000e+03 
1074.352 5.63700000e+03 
1073.848 5.71400000e+03 
1073.345 5.56900000e+03 
1072.842 5.60900000e+03 
1072.339 5.67200000e+03 
1071.836 5.66300000e+03 
1071.333 5.57100000e+03 
1070.830 5.54900000e+03 
1070.327 5.69600000e+03 
1069.823 5.79400000e+03 
1069.320 5.62900000e+03 
1068.817 5.67800000e+03 
1068.314 5.60300000e+03 
1067.811 5.48800000e+03 
1067.308 5.69000000e+03 
1066.805 5.56200000e+03 
1066.302 5.58000000e+03 
1065.798 5.55500000e+03 
1065.295 5.68200000e+03 
1064.792 5.63400000e+03 
1064.289 5.53400000e+03 
1063.786 5.44500000e+03 
1063.283 5.64000000e+03 
1062.780 5.58300000e+03 
1062.277 5.54300000e+03 
1061.773 5.49900000e+03 
1061.270 5.59000000e+03 
1060.767 5.43200000e+03 
1060.264 5.45000000e+03 
1059.761 5.52300000e+03 
1059.258 5.59200000e+03 
1058.755 5.53000000e+03 
1058.252 5.41300000e+03 
1057.748 5.67600000e+03 
1057.245 5.59500000e+03 
1056.742 5.46900000e+03 
1056.239 5.50800000e+03 
1055.736 5.48800000e+03 
1055.233 5.39300000e+03 
1054.730 5.50200000e+03 
1054.227 5.43200000e+03 
1053.723 5.35300000e+03 
1053.220 5.53100000e+03 
1052.717 5.51200000e+03 
1052.214 5.73200000e+03 
1051.711 5.46700000e+03 
1051.208 5.49500000e+03 
1050.705 5.49700000e+03 
1050.202 5.35600000e+03 
1049.698 5.42200000e+03 
1049.195 5.43000000e+03 
1048.692 5.51100000e+03 
1048.189 5.44500000e+03 
1047.686 5.52400000e+03 
1047.183 5.52800000e+03 
1046.680 5.38800000e+03 
1046.177 5.48600000e+03 
1045.673 5.46200000e+03 
1045.170 5.44400000e+03 
1044.667 5.50700000e+03 
1044.164 5.56300000e+03 
1043.661 5.60500000e+03 
1043.158 5.48600000e+03 
1042.655 5.40200000e+03 
1042.152 5.34500000e+03 
1041.648 5.38700000e+03 
1041.145 5.44500000e+03 
1040.642 5.39400000e+03 
1040.139 5.50900000e+03 
1039.636 5.44100000e+03 
1039.133 5.49800000e+03 
1038.630 5.51700000e+03 
1038.127 5.30800000e+03 
1037.623 5.53600000e+03 
1037.120 5.35100000e+03 
1036.617 5.32400000e+03 
1036.114 5.45300000e+03 
1035.611 5.48100000e+03 
1035.108 5.34100000e+03 
1034.605 5.36200000e+03 
1034.102 5.43300000e+03 
1033.598 5.44900000e+03 
1033.095 5.35900000e+03 
1032.592 5.41700000e+03 
1032.089 5.47000000e+03 
1031.586 5.44600000e+03 
1031.083 5.28500000e+03 
1030.580 5.43100000e+03 
1030.077 5.24400000e+03 
1029.573 5.44300000e+03 
1029.070 5.37600000e+03 
1028.567 5.34500000e+03 
1028.064 5.51600000e+03 
1027.561 5.45300000e+03 
1027.058 5.39500000e+03 
1026.555 5.43900000e+03 
1026.052 5.41500000e+03 
1025.548 5.47800000e+03 
1025.045 5.36500000e+03 
1024.542 5.33000000e+03 
1024.039 5.42500000e+03 
1023.536 5.35600000e+03 
1023.033 5.34000000e+03 
1022.530 5.32000000e+03 
1022.027 5.34900000e+03 
1021.523 5.28700000e+03 
1021.020 5.45700000e+03 
1020.517 5.35400000e+03 
1020.014 5.50500000e+03 
1019.511 5.34700000e+03 
1019.008 5.19500000e+03 
1018.505 5.37100000e+03 
1018.002 5.32600000e+03 
1017.498 5.50900000e+03 
1016.995 5.42100000e+03 
1016.492 5.20000000e+03 
1015.989 5.37900000e+03 
1015.486 5.29000000e+03 
1014.983 5.28400000e+03 
1014.480 5.22200000e+03 
1013.977 5.32500000e+03 
1013.473 5.30200000e+03 
1012.970 5.29900000e+03 
1012.467 5.23700000e+03 
1011.964 5.20900000e+03 
1011.461 5.32400000e+03 
1010.958 5.23300000e+03 
1010.455 5.41700000e+03 
1009.952 5.38800000e+03 
1009.448 5.30700000e+03 
1008.945 5.25600000e+03 
1008.442 5.42300000e+03 
1007.939 5.38600000e+03 
1007.436 5.21500000e+03 
1006.933 5.28100000e+03 
1006.430 5.38600000e+03 
1005.927 5.22000000e+03 
1005.423 5.34800000e+03 
1004.920 5.24500000e+03 
1004.417 5.21800000e+03 
1003.914 5.29400000e+03 
1003.411 5.38700000e+03 
1002.908 5.09000000e+03 
1002.405 5.22900000e+03 
1001.902 5.36800000e+03 
1001.398 5.33700000e+03 
1000.895 5.30200000e+03 
1000.392 5.22600000e+03 
999.889  5.09700000e+03 
999.386  5.19900000e+03 
998.883  5.13800000e+03 
998.380  5.22300000e+03 
997.877  5.22700000e+03 
997.373  5.24700000e+03 
996.870  5.10900000e+03 
996.367  5.07500000e+03 
995.864  5.19400000e+03 
995.361  5.22400000e+03 
994.858  5.23000000e+03 
994.355  5.17100000e+03 
993.852  5.23600000e+03 
993.348  5.11500000e+03 
992.845  5.21100000e+03 
992.342  4.89000000e+03 
991.839  5.06300000e+03 
991.336  5.09600000e+03 
990.833  5.12800000e+03 
990.330  5.08600000e+03 
989.827  5.11000000e+03 
989.323  5.09500000e+03 
988.820  5.08100000e+03 
988.317  5.14200000e+03 
987.814  5.25600000e+03 
987.311  5.09300000e+03 
986.808  5.15900000e+03 
986.305  5.05800000e+03 
985.802  5.08900000e+03 
985.298  5.17900000e+03 
984.795  5.09000000e+03 
984.292  5.27500000e+03 
983.789  5.16100000e+03 
983.286  5.20000000e+03 
982.783  5.28000000e+03 
982.280  5.08200000e+03 
981.777  5.09100000e+03 
981.273  5.15400000e+03 
980.770  5.06400000e+03 
980.267  5.08800000e+03 
979.764  4.86700000e+03 
979.261  4.84300000e+03 
978.758  4.83300000e+03 
978.255  4.86900000e+03 
977.752  4.92100000e+03 
977.248  4.66100000e+03 
976.745  4.97800000e+03 
976.242  4.89700000e+03 
975.739  4.88000000e+03 
975.236  4.93700000e+03 
974.733  4.86000000e+03 
974.230  4.79900000e+03 
973.727  4.88700000e+03 
973.223  4.75900000e+03 
972.720  4.79600000e+03 
972.217  4.79700000e+03 
971.714  4.72700000e+03 
971.211  4.54900000e+03 
970.708  4.62200000e+03 
970.205  4.53400000e+03 
969.702  4.59000000e+03 
969.198  4.52300000e+03 
968.695  4.61700000e+03 
968.192  4.56800000e+03 
967.689  4.71700000e+03 
967.186  4.55600000e+03 
966.683  4.49600000e+03 
966.180  4.46200000e+03 
965.677  4.47900000e+03 
965.173  4.53100000e+03 
964.670  4.49400000e+03 
964.167  4.45400000e+03 
963.664  4.67600000e+03 
963.161  4.62400000e+03 
962.658  4.71000000e+03 
962.155  5.04500000e+03 
961.652  5.52000000e+03 
961.148  6.03500000e+03 
960.645  6.63300000e+03 
960.142  6.49900000e+03 
959.639  5.49200000e+03 
959.136  4.72300000e+03 
958.633  4.41100000e+03 
958.130  4.27200000e+03 
957.627  4.24000000e+03 
957.123  4.03500000e+03 
956.620  4.01200000e+03 
956.117  4.12300000e+03 
955.614  4.16000000e+03 
955.111  3.97200000e+03 
954.608  3.97300000e+03 
954.105  3.99100000e+03 
953.602  3.86200000e+03 
953.098  3.86100000e+03 
952.595  3.86000000e+03 
952.092  3.83200000e+03 
951.589  3.72200000e+03 
951.086  3.69800000e+03 
950.583  3.66900000e+03 
950.080  3.50800000e+03 
949.577  3.54200000e+03 
949.073  3.44300000e+03 
948.570  3.50900000e+03 
948.067  3.47200000e+03 
947.564  3.40400000e+03 
947.061  3.56900000e+03 
946.558  3.49300000e+03 
946.055  3.42900000e+03 
945.552  3.49700000e+03 
945.048  3.61900000e+03 
944.545  3.54600000e+03 
944.042  3.48000000e+03 
943.539  3.64700000e+03 
943.036  3.62800000e+03 
942.533  4.15500000e+03 
942.030  4.89900000e+03 
941.527  6.40500000e+03 
941.023  8.49700000e+03 
940.520  9.73800000e+03 
940.017  7.00300000e+03 
939.514  4.32200000e+03 
939.011  3.31400000e+03 
938.508  3.12500000e+03 
938.005  3.05300000e+03 
937.502  2.89300000e+03 
936.998  2.91500000e+03 
936.495  2.82200000e+03 
935.992  2.92700000e+03 
935.489  2.82700000e+03 
934.986  2.88100000e+03 
934.483  2.72100000e+03 
933.980  2.80900000e+03 
933.477  2.87000000e+03 
932.973  2.75800000e+03 
932.470  2.84000000e+03 
931.967  2.72100000e+03 
931.464  2.88400000e+03 
930.961  2.76600000e+03 
930.458  2.80000000e+03 
929.955  2.74500000e+03 
929.452  2.88100000e+03 
928.948  2.79500000e+03 
928.445  2.80000000e+03 
927.942  2.78900000e+03 
927.439  2.85300000e+03 
926.936  2.70800000e+03 
926.433  2.81200000e+03 
925.930  2.82200000e+03 
925.427  2.76500000e+03 
924.923  2.68200000e+03 
924.420  2.84700000e+03 
923.917  2.81500000e+03 
923.414  2.83000000e+03 
922.911  2.77900000e+03 
922.408  2.78500000e+03 
921.905  2.80400000e+03 
921.402  2.76700000e+03 
920.898  2.77700000e+03 
920.395  2.75500000e+03 
919.892  2.80400000e+03 
919.389  2.77100000e+03 
918.886  2.93900000e+03 
918.383  2.75900000e+03 
917.880  2.74700000e+03 
917.377  2.82200000e+03 
916.873  2.80800000e+03 
916.370  2.77200000e+03 
915.867  2.74900000e+03 
915.364  2.70100000e+03 
914.861  2.85200000e+03 
914.358  2.84200000e+03 
913.855  2.75100000e+03 
913.352  2.77300000e+03 
912.848  2.70100000e+03 
912.345  2.88100000e+03 
911.842  2.80300000e+03 
911.339  2.67100000e+03 
910.836  2.78600000e+03 
910.333  2.80800000e+03 
909.830  2.73000000e+03 
909.327  2.82200000e+03 
908.823  2.76300000e+03 
908.320  2.85500000e+03 
907.817  2.77900000e+03 
907.314  2.81800000e+03 
906.811  2.83900000e+03 
906.308  2.78400000e+03 
905.805  2.76600000e+03 
905.302  2.75400000e+03 
904.798  2.74800000e+03 
904.295  2.75200000e+03 
903.792  2.78600000e+03 
903.289  2.73800000e+03 
902.786  2.82800000e+03 
902.283  2.76200000e+03 
901.780  2.74000000e+03 
901.277  2.74200000e+03 
900.773  2.76700000e+03 
900.270  2.73100000e+03 
899.767  2.81300000e+03 
899.264  2.82000000e+03 
898.761  2.89200000e+03 
898.258  2.71200000e+03 
897.755  2.84700000e+03 
897.252  2.68100000e+03 
896.748  2.69500000e+03 
896.245  2.79100000e+03 
895.742  2.77400000e+03 
895.239  2.75000000e+03 
894.736  2.70500000e+03 
894.233  2.72700000e+03 
893.730  2.82200000e+03 
893.227  2.76200000e+03 
892.723  2.71200000e+03 
892.220  2.76400000e+03 
891.717  2.74300000e+03 
891.214  2.79700000e+03 
890.711  2.78700000e+03 
890.208  2.73600000e+03 
889.705  2.77400000e+03 
889.202  2.78900000e+03 
888.698  2.79800000e+03 
888.195  2.86200000e+03 
887.692  2.71400000e+03 
887.189  2.78300000e+03 
886.686  2.73000000e+03 
886.183  2.70600000e+03 
885.680  2.70600000e+03 
885.177  2.88000000e+03 
884.673  2.84800000e+03 
884.170  2.75000000e+03 
883.667  2.84600000e+03 
883.164  2.81100000e+03 
882.661  2.78300000e+03 
882.158  2.72700000e+03 
881.655  2.71700000e+03 
881.152  2.69700000e+03 
880.648  2.88600000e+03 
880.145  2.74700000e+03 
879.642  2.72300000e+03 
879.139  2.73100000e+03 
878.636  2.78900000e+03 
878.133  2.75800000e+03 
877.630  2.76600000e+03 
877.127  2.86300000e+03 
876.623  2.77200000e+03 
876.120  2.84800000e+03 
875.617  2.72100000e+03 
875.114  2.77500000e+03 
874.611  2.78000000e+03 
874.108  2.72400000e+03 
873.605  2.76200000e+03 
873.102  2.81500000e+03 
872.598  2.80400000e+03 
872.095  2.75800000e+03 
871.592  2.81800000e+03 
871.089  2.71500000e+03 
870.586  2.85500000e+03 
870.083  2.85300000e+03 
869.580  2.68300000e+03 
869.077  2.77600000e+03 
868.573  2.73300000e+03 
868.070  2.70400000e+03 
867.567  2.76200000e+03 
867.064  2.79700000e+03 
866.561  2.79400000e+03 
866.058  2.72900000e+03 
865.555  2.72800000e+03 
865.052  2.78900000e+03 
864.548  2.82700000e+03 
864.045  2.81100000e+03 
863.542  2.77600000e+03 
863.039  2.73800000e+03 
862.536  2.82800000e+03 
862.033  2.72500000e+03 
861.530  2.82000000e+03 
861.027  2.78100000e+03 
860.523  2.79300000e+03 
860.020  2.77400000e+03 
859.517  2.73700000e+03 
859.014  2.78600000e+03 
858.511  2.81600000e+03 
858.008  2.71100000e+03 
857.505  2.73600000e+03 
857.002  2.78000000e+03 
856.498  2.78700000e+03 
855.995  2.74300000e+03 
855.492  2.78300000e+03 
854.989  2.80100000e+03 
854.486  2.86900000e+03 
853.983  2.72900000e+03 
853.480  2.74100000e+03 
852.977  2.73400000e+03 
852.473  2.77400000e+03 
851.970  2.72000000e+03 
851.467  2.79700000e+03 
850.964  2.79900000e+03 
850.461  2.80700000e+03 
849.958  2.75000000e+03 
849.455  2.76700000e+03 
848.952  2.77800000e+03 
848.448  2.74000000e+03 
847.945  2.75800000e+03 
847.442  2.73800000e+03 
846.939  2.81200000e+03 
846.436  2.70200000e+03 
845.933  2.81100000e+03 
845.430  2.82700000e+03 
844.927  2.83400000e+03 
844.423  2.76100000e+03 
843.920  2.82700000e+03 
843.417  2.72200000e+03 
842.914  2.68700000e+03 
842.411  2.74000000e+03 
841.908  2.83100000e+03 
841.405  2.73300000e+03 
840.902  2.78100000e+03 
840.398  2.87200000e+03 
839.895  2.81700000e+03 
839.392  2.76700000e+03 
838.889  2.82700000e+03 
838.386  2.72900000e+03 
837.883  2.82000000e+03 
837.380  2.81200000e+03 
836.877  2.75900000e+03 
836.373  2.69700000e+03 
835.870  2.82800000e+03 
835.367  2.80200000e+03 
834.864  2.76200000e+03 
834.361  2.66400000e+03 
833.858  2.91400000e+03 
833.355  2.81900000e+03 
832.852  2.74000000e+03 
832.348  2.73200000e+03 
831.845  2.88500000e+03 
831.342  2.78100000e+03 
830.839  2.76900000e+03 
830.336  2.69800000e+03 
829.833  2.82200000e+03 
829.330  2.75000000e+03 
828.827  2.77700000e+03 
828.323  2.78600000e+03 
827.820  2.82900000e+03 
827.317  2.87200000e+03 
826.814  2.78900000e+03 
826.311  2.70600000e+03 
825.808  2.80700000e+03 
825.305  2.72200000e+03 
824.802  2.70900000e+03 
824.298  2.87000000e+03 
823.795  2.81200000e+03 
823.292  2.75600000e+03 
822.789  2.73500000e+03 
822.286  2.77200000e+03 
821.783  2.79100000e+03 
821.280  2.74600000e+03 
820.777  2.76700000e+03 
820.273  2.84200000e+03 
819.770  2.74500000e+03 
819.267  2.72900000e+03 
818.764  2.79700000e+03 
818.261  2.71800000e+03 
817.758  2.89900000e+03 
817.255  2.76600000e+03 
816.752  2.84200000e+03 
816.248  2.72200000e+03 
815.745  2.74300000e+03 
815.242  2.76300000e+03 
814.739  2.76800000e+03 
814.236  2.76800000e+03 
813.733  2.80700000e+03 
813.230  2.78200000e+03 
812.727  2.80000000e+03 
812.223  2.79100000e+03 
811.720  2.82600000e+03 
811.217  2.79700000e+03 
810.714  2.77200000e+03 
810.211  2.80400000e+03 
809.708  2.81500000e+03 
809.205  2.73600000e+03 
808.702  2.77700000e+03 
808.198  2.80500000e+03 
807.695  2.81500000e+03 
807.192  2.81500000e+03 
806.689  2.78000000e+03 
806.186  2.74100000e+03 
805.683  2.82300000e+03 
805.180  2.79300000e+03 
804.677  2.75900000e+03 
804.173  2.79500000e+03 
803.670  2.78900000e+03 
803.167  2.86000000e+03 
802.664  2.83200000e+03 
802.161  2.80100000e+03 
801.658  2.80900000e+03 
801.155  2.75100000e+03 
800.652  2.74500000e+03 
800.148  2.75500000e+03 
799.645  2.86200000e+03 
799.142  2.84000000e+03 
798.639  2.82900000e+03 
798.136  2.76100000e+03 
797.633  2.77200000e+03 
797.130  2.78500000e+03 
796.627  2.80900000e+03 
796.123  2.82800000e+03 
795.620  2.84500000e+03 
795.117  2.76600000e+03 
794.614  2.87300000e+03 
794.111  2.83900000e+03 
793.608  2.67800000e+03 
793.105  2.75600000e+03 
792.602  2.83000000e+03 
792.098  2.80500000e+03 
791.595  2.81100000e+03 
791.092  2.79100000e+03 
790.589  2.83800000e+03 
790.086  2.78100000e+03 
789.583  2.87200000e+03 
789.080  2.74100000e+03 
788.577  2.75400000e+03 
788.073  2.80500000e+03 
787.570  2.80000000e+03 
787.067  2.84500000e+03 
786.564  2.75100000e+03 
786.061  2.79100000e+03 
785.558  2.72300000e+03 
785.055  2.81200000e+03 
784.552  2.77300000e+03 
784.048  2.79800000e+03 
783.545  2.68200000e+03 
783.042  2.88200000e+03 
782.539  2.83500000e+03 
782.036  2.77700000e+03 
781.533  2.79200000e+03 
781.030  2.89100000e+03 
780.527  2.80800000e+03 
780.023  2.81700000e+03 
779.520  2.82600000e+03 
779.017  2.87500000e+03 
778.514  2.77100000e+03 
778.011  2.84400000e+03 
777.508  2.81300000e+03 
777.005  2.81400000e+03 
776.502  2.83800000e+03 
775.998  2.74500000e+03 
775.495  2.81600000e+03 
774.992  2.77700000e+03 
774.489  2.86800000e+03 
773.986  2.70700000e+03 
773.483  2.79100000e+03 
772.980  2.87000000e+03 
772.477  2.75400000e+03 
771.973  2.81100000e+03 
771.470  2.82800000e+03 
770.967  2.91300000e+03 
770.464  2.82700000e+03 
769.961  2.74500000e+03 
769.458  2.74900000e+03 
768.955  2.70900000e+03 
768.452  2.74300000e+03 
767.948  2.79400000e+03 
767.445  2.79100000e+03 
766.942  2.81400000e+03 
766.439  2.87100000e+03 
765.936  2.80500000e+03 
765.433  2.80900000e+03 
764.930  2.83000000e+03 
764.427  2.81500000e+03 
763.923  2.80400000e+03 
763.420  2.80900000e+03 
762.917  2.84100000e+03 
762.414  2.79300000e+03 
761.911  2.75800000e+03 
761.408  2.67100000e+03 
760.905  2.81200000e+03 
760.402  2.79200000e+03 
759.898  2.70600000e+03 
759.395  2.74300000e+03 
758.892  2.80000000e+03 
758.389  2.74100000e+03 
757.886  2.73500000e+03 
757.383  2.68700000e+03 
756.880  2.77200000e+03 
756.377  2.78300000e+03 
755.873  2.62900000e+03 
755.370  2.76300000e+03 
754.867  2.65400000e+03 
754.364  2.74900000e+03 
753.861  2.78800000e+03 
753.358  2.65400000e+03 
752.855  2.64200000e+03 
752.352  2.84700000e+03 
751.848  2.75000000e+03 
751.345  2.65300000e+03 
750.842  2.76100000e+03 
750.339  2.78300000e+03 
749.836  2.70700000e+03 
749.333  2.73400000e+03 
748.830  2.70300000e+03 
748.327  2.75000000e+03 
747.823  2.69900000e+03 
747.320  2.72500000e+03 
746.817  2.75600000e+03 
746.314  2.67800000e+03 
745.811  2.65400000e+03 
745.308  2.78100000e+03 
744.805  2.78000000e+03 
744.302  2.68300000e+03 
743.798  2.76700000e+03 
743.295  2.60000000e+03 
742.792  2.73000000e+03 
742.289  2.74500000e+03 
741.786  2.68600000e+03 
741.283  2.67200000e+03 
740.780  2.72600000e+03 
740.277  2.64300000e+03 
739.773  2.68300000e+03 
739.270  2.77500000e+03 
738.767  2.77800000e+03 
738.264  2.73200000e+03 
737.761  2.67500000e+03 
737.258  2.61400000e+03 
736.755  2.65500000e+03 
736.252  2.67900000e+03 
735.748  2.76000000e+03 
735.245  2.70300000e+03 
734.742  2.71300000e+03 
734.239  2.66200000e+03 
733.736  2.62300000e+03 
733.233  2.64300000e+03 
732.730  2.68400000e+03 
732.227  2.68300000e+03 
731.723  2.64400000e+03 
731.220  2.63700000e+03 
730.717  2.73400000e+03 
730.214  2.63300000e+03 
729.711  2.67600000e+03 
729.208  2.70400000e+03 
728.705  2.69100000e+03 
728.202  2.69700000e+03 
727.698  2.64600000e+03 
727.195  2.68500000e+03 
726.692  2.67300000e+03 
726.189  2.65800000e+03 
725.686  2.73400000e+03 
725.183  2.63000000e+03 
724.680  2.61500000e+03 
724.177  2.60100000e+03 
723.673  2.63400000e+03 
723.170  2.64500000e+03 
722.667  2.62000000e+03 
722.164  2.65700000e+03 
721.661  2.53700000e+03 
721.158  2.67700000e+03 
720.655  2.53500000e+03 
720.152  2.52000000e+03 
719.648  2.53100000e+03 
719.145  2.52100000e+03 
718.642  2.34200000e+03 
718.139  2.48700000e+03 
717.636  2.35600000e+03 
717.133  2.30200000e+03 
716.630  2.46200000e+03 
716.127  2.39300000e+03 
715.623  2.43400000e+03 
715.120  2.36800000e+03 
714.617  2.30700000e+03 
714.114  2.35800000e+03 
713.611  2.34600000e+03 
713.108  2.39000000e+03 
712.605  2.31800000e+03 
712.102  2.41900000e+03 
711.598  2.35200000e+03 
711.095  2.19700000e+03 
710.592  2.37000000e+03 
710.089  2.23700000e+03 
709.586  2.23700000e+03 
709.083  2.32200000e+03 
708.580  2.35400000e+03 
708.077  2.27900000e+03 
707.573  2.28000000e+03 
707.070  2.30600000e+03 
706.567  2.22600000e+03 
706.064  2.28600000e+03 
705.561  2.34200000e+03 
705.058  2.23100000e+03 
704.555  2.26900000e+03 
704.052  2.21800000e+03 
703.548  2.19800000e+03 
703.045  2.22800000e+03 
702.542  2.30600000e+03 
702.039  2.19800000e+03 
701.536  2.22700000e+03 
701.033  2.18600000e+03 
700.530  2.18900000e+03 
700.027  2.22600000e+03 
699.523  2.30700000e+03 
699.020  2.22200000e+03 
698.517  2.24100000e+03 
698.014  2.29800000e+03 
697.511  2.21200000e+03 
697.008  2.20400000e+03 
696.505  2.24800000e+03 
696.002  2.18100000e+03 
695.498  2.25600000e+03 
694.995  2.20600000e+03 
694.492  2.18600000e+03 
693.989  2.27300000e+03 
693.486  2.21400000e+03 
692.983  2.10600000e+03 
692.480  2.15900000e+03 
691.977  2.15000000e+03 
691.473  2.17000000e+03 
690.970  2.24700000e+03 
690.467  2.15000000e+03 
689.964  2.18400000e+03 
689.461  2.24200000e+03 
688.958  2.24500000e+03 
688.455  2.15700000e+03 
687.952  2.20400000e+03 
687.448  2.18000000e+03 
686.945  2.15300000e+03 
686.442  2.15700000e+03 
685.939  2.13800000e+03 
685.436  2.14300000e+03 
684.933  2.18500000e+03 
684.430  2.19000000e+03 
683.927  2.21400000e+03 
683.423  2.08400000e+03 
682.920  2.10800000e+03 
682.417  2.16200000e+03 
681.914  2.16400000e+03 
681.411  2.19300000e+03 
680.908  2.14200000e+03 
680.405  2.18300000e+03 
679.902  2.19900000e+03 
679.398  2.23600000e+03 
678.895  2.19000000e+03 
678.392  2.15400000e+03 
677.889  2.11600000e+03 
677.386  2.08300000e+03 
676.883  2.20800000e+03 
676.380  2.17500000e+03 
675.877  2.15600000e+03 
675.373  2.18100000e+03 
674.870  2.16800000e+03 
674.367  2.14100000e+03 
673.864  2.11900000e+03 
673.361  2.17000000e+03 
672.858  2.09300000e+03 
672.355  2.16700000e+03 
671.852  2.08100000e+03 
671.348  2.14500000e+03 
670.845  2.09700000e+03 
670.342  2.07300000e+03 
669.839  2.15500000e+03 
669.336  2.20000000e+03 
668.833  2.18400000e+03 
668.330  2.11700000e+03 
667.827  2.15700000e+03 
667.323  2.16600000e+03 
666.820  2.10800000e+03 
666.317  2.15200000e+03 
665.814  2.05100000e+03 
665.311  2.15800000e+03 
664.808  2.08300000e+03 
664.305  2.18700000e+03 
663.802  2.19300000e+03 
663.298  2.26600000e+03 
662.795  2.19300000e+03 
662.292  2.16900000e+03 
661.789  2.14800000e+03 
661.286  2.11300000e+03 
660.783  2.19100000e+03 
660.280  2.12800000e+03 
659.777  2.23900000e+03 
659.273  2.28100000e+03 
658.770  2.24200000e+03 
658.267  2.27100000e+03 
657.764  2.28900000e+03 
657.261  2.37800000e+03 
656.758  2.25900000e+03 
656.255  2.27800000e+03 
655.752  2.22800000e+03 
655.248  2.13300000e+03 
654.745  2.04400000e+03 
654.242  2.19000000e+03 
653.739  2.00800000e+03 
653.236  1.96500000e+03 
652.733  2.06000000e+03 
652.230  2.01000000e+03 
651.727  1.97600000e+03 
651.223  1.99100000e+03 
650.720  1.99000000e+03 
650.217  2.00400000e+03 
649.714  2.02700000e+03 
649.211  1.91900000e+03 
648.708  1.96600000e+03 
648.205  1.98300000e+03 
647.702  1.96500000e+03 
647.198  1.89500000e+03 
646.695  1.87500000e+03 
646.192  1.84900000e+03 
645.689  1.80200000e+03 
645.186  1.74000000e+03 
644.683  1.74700000e+03 
644.180  1.73400000e+03 
643.677  1.71900000e+03 
643.173  1.58100000e+03 
642.670  1.71200000e+03 
642.167  1.68500000e+03 
641.664  1.63100000e+03 
641.161  1.70100000e+03 
640.658  1.63500000e+03 
640.155  1.69200000e+03 
639.652  1.68100000e+03 
639.148  1.62700000e+03 
638.645  1.65700000e+03 
638.142  1.71500000e+03 
637.639  1.54500000e+03 
637.136  1.64000000e+03 
636.633  1.70900000e+03 
636.130  1.67300000e+03 
635.627  1.64600000e+03 
635.123  1.55400000e+03 
634.620  1.58400000e+03 
634.117  1.52100000e+03 
633.614  1.57300000e+03 
633.111  1.61300000e+03 
632.608  1.58300000e+03 
632.105  1.57900000e+03 
631.602  1.58400000e+03 
631.098  1.59600000e+03 
630.595  1.55000000e+03 
630.092  1.45400000e+03 
629.589  1.61700000e+03 
629.086  1.54400000e+03 
628.583  1.46600000e+03 
628.080  1.46800000e+03 
627.577  1.54700000e+03 
627.073  1.51700000e+03 
626.570  1.50400000e+03 
626.067  1.56400000e+03 
625.564  1.46800000e+03 
625.061  1.53400000e+03 
624.558  1.48300000e+03 
624.055  1.50300000e+03 
623.552  1.44200000e+03 
623.048  1.44600000e+03 
622.545  1.47700000e+03 
622.042  1.46100000e+03 
621.539  1.54000000e+03 
621.036  1.50700000e+03 
620.533  1.51600000e+03 
620.030  1.48500000e+03 
619.527  1.47800000e+03 
619.023  1.46700000e+03 
618.520  1.51800000e+03 
618.017  1.42300000e+03 
617.514  1.48300000e+03 
617.011  1.47900000e+03 
616.508  1.42100000e+03 
616.005  1.55300000e+03 
615.502  1.47000000e+03 
614.998  1.44400000e+03 
614.495  1.44700000e+03 
613.992  1.41000000e+03 
613.489  1.55300000e+03 
612.986  1.48600000e+03 
612.483  1.42500000e+03 
611.980  1.49200000e+03 
611.477  1.51900000e+03 
610.973  1.52000000e+03 
610.470  1.45400000e+03 
609.967  1.58300000e+03 
609.464  1.54100000e+03 
608.961  1.53600000e+03 
608.458  1.44000000e+03 
607.955  1.51600000e+03 
607.452  1.51700000e+03 
606.948  1.53700000e+03 
606.445  1.53200000e+03 
605.942  1.51800000e+03 
605.439  1.51600000e+03 
604.936  1.47600000e+03 
604.433  1.50400000e+03 
603.930  1.45600000e+03 
603.427  1.54600000e+03 
602.923  1.57000000e+03 
602.420  1.52500000e+03 
601.917  1.54900000e+03 
601.414  1.56100000e+03 
600.911  1.51200000e+03 
600.408  1.49400000e+03 
599.905  1.52600000e+03 
599.402  1.49800000e+03 
598.898  1.53300000e+03 
598.395  1.47000000e+03 
597.892  1.44000000e+03 
597.389  1.51700000e+03 
596.886  1.45800000e+03 
596.383  1.48400000e+03 
595.880  1.43300000e+03 
595.377  1.51100000e+03 
594.873  1.43000000e+03 
594.370  1.48500000e+03 
593.867  1.42300000e+03 
593.364  1.42700000e+03 
592.861  1.47600000e+03 
592.358  1.41000000e+03 
591.855  1.42800000e+03 
591.352  1.41700000e+03 
590.848  1.44100000e+03 
590.345  1.41900000e+03 
589.842  1.41500000e+03 
589.339  1.48300000e+03 
588.836  1.42300000e+03 
588.333  1.39200000e+03 
587.830  1.48600000e+03 
587.327  1.42600000e+03 
586.823  1.38300000e+03 
586.320  1.45400000e+03 
585.817  1.42900000e+03 
585.314  1.44400000e+03 
584.811  1.43600000e+03 
584.308  1.44200000e+03 
583.805  1.45700000e+03 
583.302  1.47900000e+03 
582.798  1.59500000e+03 
582.295  1.45300000e+03 
581.792  1.59700000e+03 
581.289  1.62200000e+03 
580.786  1.60000000e+03 
580.283  1.67800000e+03 
579.780  1.64700000e+03 
579.277  1.82000000e+03 
578.773  1.91000000e+03 
578.270  2.00800000e+03 
577.767  1.92800000e+03 
577.264  1.92000000e+03 
576.761  1.92200000e+03 
576.258  1.90300000e+03 
575.755  1.78500000e+03 
575.252  1.57600000e+03 
574.748  1.38100000e+03 
574.245  1.20400000e+03 
573.742  1.13700000e+03 
573.239  1.18300000e+03 
572.736  1.11000000e+03 
572.233  9.50000000e+02 
571.730  9.01000000e+02 
571.227  9.16000000e+02 
570.723  9.34000000e+02 
570.220  8.22000000e+02 
569.717  8.52000000e+02 
569.214  8.16000000e+02 
568.711  8.21000000e+02 
568.208  8.48000000e+02 
567.705  8.63000000e+02 
567.202  7.67000000e+02 
566.698  7.83000000e+02 
566.195  7.55000000e+02 
565.692  7.93000000e+02 
565.189  7.76000000e+02 
564.686  7.82000000e+02 
564.183  7.58000000e+02 
563.680  7.77000000e+02 
563.177  7.45000000e+02 
562.673  7.69000000e+02 
562.170  7.67000000e+02 
561.667  7.38000000e+02 
561.164  7.72000000e+02 
560.661  7.57000000e+02 
560.158  7.97000000e+02 
559.655  8.02000000e+02 
559.152  7.58000000e+02 
558.648  7.69000000e+02 
558.145  8.20000000e+02 
557.642  7.41000000e+02 
557.139  7.86000000e+02 
556.636  7.63000000e+02 
556.133  7.43000000e+02 
555.630  6.70000000e+02 
555.127  7.00000000e+02 
554.623  6.18000000e+02 
554.120  5.70000000e+02 
553.617  6.24000000e+02 
553.114  5.24000000e+02 
552.611  5.19000000e+02 
552.108  5.20000000e+02 
551.605  4.76000000e+02 
551.102  4.36000000e+02 
550.598  4.56000000e+02 
550.095  4.75000000e+02 
549.592  4.90000000e+02 
549.089  4.64000000e+02 
548.586  4.56000000e+02 
548.083  4.58000000e+02 
547.580  4.74000000e+02 
547.077  4.55000000e+02 
546.573  4.42000000e+02 
546.070  4.81000000e+02 
545.567  4.65000000e+02 
545.064  4.62000000e+02 
544.561  4.58000000e+02 
544.058  4.76000000e+02 
543.555  5.00000000e+02 
543.052  4.80000000e+02 
542.548  4.89000000e+02 
542.045  5.85000000e+02 
541.542  6.37000000e+02 
541.039  7.25000000e+02 
540.536  8.00000000e+02 
540.033  8.73000000e+02 
539.530  1.00400000e+03 
539.027  9.43000000e+02 
538.523  1.02600000e+03 
538.020  8.23000000e+02 
537.517  5.60000000e+02 
537.014  4.35000000e+02 
536.511  3.58000000e+02 
536.008  3.30000000e+02 
535.505  3.83000000e+02 
535.002  3.53000000e+02 
534.498  3.71000000e+02 
533.995  3.89000000e+02 
533.492  3.64000000e+02 
532.989  3.63000000e+02 
532.486  3.74000000e+02 
531.983  3.78000000e+02 
531.480  3.61000000e+02 
530.977  3.45000000e+02 
530.473  3.55000000e+02 
529.970  3.92000000e+02 
529.467  3.81000000e+02 
528.964  3.67000000e+02 
528.461  4.00000000e+02 
527.958  3.90000000e+02 
527.455  3.97000000e+02 
526.952  3.64000000e+02 
526.448  3.89000000e+02 
525.945  3.46000000e+02 
525.442  3.92000000e+02 
524.939  3.63000000e+02 
524.436  3.64000000e+02 
523.933  3.69000000e+02 
523.430  3.68000000e+02 
522.927  3.70000000e+02 
522.423  3.80000000e+02 
521.920  3.48000000e+02 
521.417  3.57000000e+02 
520.914  3.80000000e+02 
520.411  3.86000000e+02 
519.908  3.54000000e+02 
519.405  3.67000000e+02 
518.902  3.71000000e+02 
518.398  3.72000000e+02 
517.895  3.51000000e+02 
517.392  3.65000000e+02 
516.889  3.75000000e+02 
516.386  3.54000000e+02 
515.883  3.60000000e+02 
515.380  3.63000000e+02 
514.877  3.72000000e+02 
514.373  3.70000000e+02 
513.870  3.47000000e+02 
513.367  3.90000000e+02 
512.864  3.78000000e+02 
512.361  3.72000000e+02 
511.858  3.43000000e+02 
511.355  3.59000000e+02 
510.852  3.63000000e+02 
510.348  3.71000000e+02 
509.845  3.98000000e+02 
509.342  3.59000000e+02 
508.839  3.57000000e+02 
508.336  3.53000000e+02 
507.833  3.65000000e+02 
507.330  3.79000000e+02 
506.827  3.60000000e+02 
506.323  3.60000000e+02 
505.820  3.68000000e+02 
505.317  3.62000000e+02 
504.814  3.73000000e+02 
504.311  3.47000000e+02 
503.808  3.50000000e+02 
503.305  3.39000000e+02 
502.802  3.91000000e+02 
502.298  3.47000000e+02 
501.795  3.79000000e+02 
501.292  3.88000000e+02 
500.789  3.65000000e+02 
500.286  3.80000000e+02 
499.783  3.71000000e+02 
499.280  3.61000000e+02 
498.777  3.91000000e+02 
498.273  3.48000000e+02 
497.770  3.86000000e+02 
497.267  3.87000000e+02 
496.764  3.45000000e+02 
496.261  3.55000000e+02 
495.758  3.80000000e+02 
495.255  3.62000000e+02 
494.752  3.86000000e+02 
494.248  3.61000000e+02 
493.745  3.72000000e+02 
493.242  3.25000000e+02 
492.739  3.46000000e+02 
492.236  3.67000000e+02 
491.733  3.88000000e+02 
491.230  3.75000000e+02 
490.727  3.63000000e+02 
490.223  4.00000000e+02 
489.720  3.75000000e+02 
489.217  3.84000000e+02 
488.714  3.72000000e+02 
488.211  3.62000000e+02 
487.708  3.75000000e+02 
487.205  3.64000000e+02 
486.702  3.55000000e+02 
486.198  4.06000000e+02 
485.695  3.80000000e+02 
485.192  3.91000000e+02 
484.689  3.60000000e+02 
484.186  3.76000000e+02 
483.683  4.01000000e+02 
483.180  4.00000000e+02 
482.677  3.69000000e+02 
482.173  3.90000000e+02 
481.670  4.09000000e+02 
481.167  3.79000000e+02 
480.664  3.73000000e+02 
480.161  4.07000000e+02 
479.658  3.83000000e+02 
479.155  3.68000000e+02 
478.652  3.89000000e+02 
478.148  3.71000000e+02 
477.645  4.14000000e+02 
477.142  3.89000000e+02 
476.639  3.74000000e+02 
476.136  3.66000000e+02 
475.633  3.63000000e+02 
475.130  3.86000000e+02 
474.627  3.72000000e+02 
474.123  3.55000000e+02 
473.620  3.66000000e+02 
473.117  3.86000000e+02 
472.614  3.58000000e+02 
472.111  3.94000000e+02 
471.608  3.72000000e+02 
471.105  3.81000000e+02 
470.602  3.95000000e+02 
470.098  3.59000000e+02 
469.595  3.66000000e+02 
469.092  3.76000000e+02 
468.589  3.76000000e+02 
468.086  3.69000000e+02 
467.583  3.93000000e+02 
467.080  4.19000000e+02 
466.577  4.09000000e+02 
466.073  4.12000000e+02 
465.570  3.85000000e+02 
465.067  3.88000000e+02 
464.564  3.45000000e+02 
464.061  3.28000000e+02 
463.558  3.89000000e+02 
463.055  3.74000000e+02 
462.552  3.83000000e+02 
462.048  3.65000000e+02 
461.545  3.94000000e+02 
461.042  3.62000000e+02 
460.539  3.90000000e+02 
460.036  3.81000000e+02 
459.533  4.00000000e+02 
459.030  3.93000000e+02 
458.527  4.05000000e+02 
458.023  4.16000000e+02 
457.520  3.54000000e+02 
457.017  3.79000000e+02 
456.514  4.05000000e+02 
456.011  3.90000000e+02 
455.508  4.13000000e+02 
455.005  3.79000000e+02 
454.502  4.08000000e+02 
453.998  3.91000000e+02 
453.495  3.85000000e+02 
452.992  4.06000000e+02 
452.489  3.69000000e+02 
451.986  3.97000000e+02 
451.483  3.81000000e+02 
450.980  3.53000000e+02 
450.477  4.05000000e+02 
449.973  3.79000000e+02 
449.470  4.26000000e+02 
448.967  4.33000000e+02 
448.464  3.66000000e+02 
447.961  4.09000000e+02 
447.458  3.98000000e+02 
446.955  4.42000000e+02 
446.452  4.19000000e+02 
445.948  3.54000000e+02 
445.445  4.09000000e+02 
444.942  3.78000000e+02 
444.439  3.78000000e+02 
443.936  3.98000000e+02 
443.433  4.02000000e+02 
442.930  3.71000000e+02 
442.427  3.78000000e+02 
441.923  4.01000000e+02 
441.420  3.79000000e+02 
440.917  4.01000000e+02 
440.414  4.03000000e+02 
439.911  3.75000000e+02 
439.408  3.99000000e+02 
438.905  3.88000000e+02 
438.402  4.25000000e+02 
437.898  3.90000000e+02 
437.395  4.06000000e+02 
436.892  4.33000000e+02 
436.389  3.89000000e+02 
435.886  4.17000000e+02 
435.383  4.08000000e+02 
434.880  3.88000000e+02 
434.377  3.91000000e+02 
433.873  3.99000000e+02 
433.370  4.32000000e+02 
432.867  3.86000000e+02 
432.364  3.96000000e+02 
431.861  4.16000000e+02 
431.358  4.09000000e+02 
430.855  3.92000000e+02 
430.352  3.95000000e+02 
429.848  3.73000000e+02 
429.345  3.76000000e+02 
428.842  3.65000000e+02 
428.339  3.60000000e+02 
427.836  3.73000000e+02 
427.333  4.12000000e+02 
426.830  3.80000000e+02 
426.327  3.92000000e+02 
425.823  4.04000000e+02 
425.320  3.91000000e+02 
424.817  3.88000000e+02 
424.314  3.93000000e+02 
423.811  4.17000000e+02 
423.308  3.69000000e+02 
422.805  4.21000000e+02 
422.302  3.81000000e+02 
421.798  4.08000000e+02 
421.295  4.23000000e+02 
420.792  3.93000000e+02 
420.289  3.84000000e+02 
419.786  4.00000000e+02 
419.283  3.96000000e+02 
418.780  3.84000000e+02 
418.277  4.04000000e+02 
417.773  4.24000000e+02 
417.270  3.50000000e+02 
416.767  4.15000000e+02 
416.264  4.16000000e+02 
415.761  4.35000000e+02 
415.258  3.98000000e+02 
414.755  3.82000000e+02 
414.252  4.07000000e+02 
413.748  4.03000000e+02 
413.245  3.72000000e+02 
412.742  4.32000000e+02 
412.239  4.19000000e+02 
411.736  4.01000000e+02 
411.233  4.19000000e+02 
410.730  3.79000000e+02 
410.227  4.18000000e+02 
409.723  4.28000000e+02 
409.220  5.02000000e+02 
408.717  4.73000000e+02 
408.214  4.89000000e+02 
407.711  4.97000000e+02 
407.208  4.91000000e+02 
406.705  4.55000000e+02 
406.202  4.08000000e+02 
405.698  3.61000000e+02 
405.195  3.87000000e+02 
404.692  4.15000000e+02 
404.189  3.83000000e+02 
403.686  4.12000000e+02 
403.183  3.77000000e+02 
402.680  3.95000000e+02 
402.177  4.46000000e+02 
401.673  4.03000000e+02 
401.170  3.98000000e+02 
400.667  3.95000000e+02 
400.164  3.95000000e+02 
399.661  4.08000000e+02 
399.158  3.98000000e+02 
398.655  4.32000000e+02 
398.152  3.52000000e+02 
397.648  3.83000000e+02 
397.145  3.71000000e+02 
396.642  4.38000000e+02 
396.139  4.12000000e+02 
395.636  4.05000000e+02 
395.133  3.64000000e+02 
394.630  3.75000000e+02 
394.127  3.80000000e+02 
393.623  3.71000000e+02 
393.120  3.90000000e+02 
392.617  3.90000000e+02 
392.114  4.00000000e+02 
391.611  4.22000000e+02 
391.108  4.01000000e+02 
390.605  4.56000000e+02 
390.102  3.88000000e+02 
389.598  4.05000000e+02 
389.095  3.89000000e+02 
388.592  4.00000000e+02 
388.089  3.79000000e+02 
387.586  4.10000000e+02 
387.083  3.94000000e+02 
386.580  4.35000000e+02 
386.077  3.92000000e+02 
385.573  4.19000000e+02 
385.070  4.20000000e+02 
384.567  3.98000000e+02 
384.064  3.82000000e+02 
383.561  3.98000000e+02 
383.058  3.90000000e+02 
382.555  4.08000000e+02 
382.052  4.06000000e+02 
381.548  4.24000000e+02 
381.045  4.48000000e+02 
380.542  4.06000000e+02 
380.039  3.98000000e+02 
379.536  3.89000000e+02 
379.033  4.00000000e+02 
378.530  3.71000000e+02 
378.027  4.16000000e+02 
377.523  3.55000000e+02 
377.020  4.38000000e+02 
376.517  4.35000000e+02 
376.014  4.35000000e+02 
375.511  4.24000000e+02 
375.008  4.29000000e+02 
374.505  4.13000000e+02 
374.002  4.12000000e+02 
373.498  3.92000000e+02 
372.995  4.16000000e+02 
372.492  3.93000000e+02 
371.989  4.18000000e+02 
371.486  4.12000000e+02 
370.983  4.35000000e+02 
370.480  4.27000000e+02 
369.977  3.97000000e+02 
369.473  4.38000000e+02 
368.970  4.50000000e+02 
368.467  4.30000000e+02 
367.964  4.07000000e+02 
367.461  4.41000000e+02 
366.958  3.68000000e+02 
366.455  4.24000000e+02 
365.952  4.38000000e+02 
365.448  4.03000000e+02 
364.945  4.20000000e+02 
364.442  4.27000000e+02 
363.939  4.19000000e+02 
363.436  4.61000000e+02 
362.933  4.46000000e+02 
362.430  4.29000000e+02 
361.927  4.23000000e+02 
361.423  3.79000000e+02 
360.920  4.39000000e+02 
360.417  4.04000000e+02 
359.914  4.47000000e+02 
359.411  4.65000000e+02 
358.908  4.50000000e+02 
358.405  4.20000000e+02 
357.902  4.55000000e+02 
357.398  4.21000000e+02 
356.895  4.26000000e+02 
356.392  4.59000000e+02 
355.889  5.13000000e+02 
355.386  4.53000000e+02 
354.883  4.31000000e+02 
354.380  4.56000000e+02 
353.877  4.36000000e+02 
353.373  4.33000000e+02 
352.870  4.47000000e+02 
352.367  4.19000000e+02 
351.864  3.99000000e+02 
351.361  4.20000000e+02 
350.858  4.26000000e+02 
350.355  4.52000000e+02 
349.852  4.32000000e+02 
349.348  4.23000000e+02 
348.845  4.20000000e+02 
348.342  3.83000000e+02 
347.839  4.50000000e+02 
347.336  4.57000000e+02 
346.833  4.37000000e+02 
346.330  4.63000000e+02 
345.827  3.77000000e+02 
345.323  4.61000000e+02 
344.820  4.44000000e+02 
344.317  4.49000000e+02 
343.814  4.13000000e+02 
343.311  4.11000000e+02 
342.808  4.72000000e+02 
342.305  4.31000000e+02 
341.802  4.76000000e+02 
341.298  4.41000000e+02 
340.795  4.49000000e+02 
340.292  3.91000000e+02 
339.789  4.50000000e+02 
339.286  4.19000000e+02 
338.783  4.23000000e+02 
338.280  4.68000000e+02 
337.777  4.52000000e+02 
337.273  4.38000000e+02 
336.770  4.41000000e+02 
336.267  4.51000000e+02 
335.764  4.40000000e+02 
335.261  4.32000000e+02 
334.758  4.56000000e+02 
334.255  4.47000000e+02 
333.752  4.71000000e+02 
333.248  4.66000000e+02 
332.745  4.48000000e+02 
332.242  4.28000000e+02 
331.739  4.62000000e+02 
331.236  4.71000000e+02 
330.733  4.65000000e+02 
330.230  4.23000000e+02 
329.727  4.27000000e+02 
329.223  4.92000000e+02 
328.720  4.43000000e+02 
328.217  4.21000000e+02 
327.714  4.32000000e+02 
327.211  4.83000000e+02 
326.708  4.85000000e+02 
326.205  4.83000000e+02 
325.702  4.75000000e+02 
325.198  5.05000000e+02 
324.695  4.67000000e+02 
324.192  4.59000000e+02 
323.689  4.63000000e+02 
323.186  4.56000000e+02 
322.683  4.57000000e+02 
322.180  4.39000000e+02 
321.677  4.94000000e+02 
321.173  4.70000000e+02 
320.670  4.82000000e+02 
320.167  4.79000000e+02 
319.664  4.77000000e+02 
319.161  4.97000000e+02 
318.658  4.90000000e+02 
318.155  4.67000000e+02 
317.652  4.48000000e+02 
317.148  4.86000000e+02 
316.645  5.19000000e+02 
316.142  4.63000000e+02 
315.639  4.04000000e+02 
315.136  5.02000000e+02 
314.633  4.78000000e+02 
314.130  4.88000000e+02 
313.627  4.90000000e+02 
313.123  5.04000000e+02 
312.620  4.62000000e+02 
312.117  4.79000000e+02 
311.614  4.53000000e+02 
311.111  4.51000000e+02 
310.608  4.64000000e+02 
310.105  4.75000000e+02 
309.602  4.71000000e+02 
309.098  4.73000000e+02 
308.595  4.40000000e+02 
308.092  4.79000000e+02 
307.589  5.06000000e+02 
307.086  4.42000000e+02 
306.583  4.78000000e+02 
306.080  4.43000000e+02 
305.577  4.62000000e+02 
305.073  4.67000000e+02 
304.570  4.50000000e+02 
304.067  4.64000000e+02 
303.564  4.53000000e+02 
303.061  4.33000000e+02 
302.558  4.29000000e+02 
302.055  4.67000000e+02 
301.552  4.77000000e+02 
301.048  4.60000000e+02 
300.545  4.54000000e+02 
300.042  4.38000000e+02 
299.539  4.38000000e+02 
299.036  4.74000000e+02 
298.533  4.81000000e+02 
298.030  4.52000000e+02 
297.527  4.58000000e+02 
297.023  4.58000000e+02 
296.520  5.19000000e+02 
296.017  5.10000000e+02 
295.514  5.91000000e+02 
295.011  6.47000000e+02 
294.508  7.45000000e+02 
294.005  9.84000000e+02 
293.502  1.30000000e+03 
292.998  1.47400000e+03 
292.495  1.40400000e+03 
291.992  9.93000000e+02 
291.489  5.53000000e+02 
290.986  4.71000000e+02 
290.483  4.42000000e+02 
289.980  4.06000000e+02 
289.477  3.86000000e+02 
288.973  4.23000000e+02 
288.470  3.73000000e+02 
287.967  3.37000000e+02 
287.464  3.84000000e+02 
286.961  3.89000000e+02 
286.458  3.99000000e+02 
285.955  3.82000000e+02 
285.452  3.78000000e+02 
284.948  3.32000000e+02 
284.445  3.92000000e+02 
283.942  3.68000000e+02 
283.439  3.99000000e+02 
282.936  4.22000000e+02 
282.433  4.19000000e+02 
281.930  3.89000000e+02 
281.427  3.53000000e+02 
280.923  3.95000000e+02 
280.420  3.83000000e+02 
279.917  3.74000000e+02 
279.414  3.93000000e+02 
278.911  4.20000000e+02 
278.408  3.80000000e+02 
277.905  3.65000000e+02 
277.402  4.05000000e+02 
276.898  3.50000000e+02 
276.395  3.87000000e+02 
275.892  3.86000000e+02 
275.389  3.51000000e+02 
274.886  3.62000000e+02 
274.383  3.80000000e+02 
273.880  3.87000000e+02 
273.377  3.70000000e+02 
272.873  3.88000000e+02 
272.370  4.14000000e+02 
271.867  3.74000000e+02 
271.364  3.79000000e+02 
270.861  4.05000000e+02 
270.358  3.92000000e+02 
269.855  3.69000000e+02 
269.352  3.89000000e+02 
268.848  3.72000000e+02 
268.345  3.87000000e+02 
267.842  3.60000000e+02 
267.339  3.87000000e+02 
266.836  3.95000000e+02 
266.333  3.87000000e+02 
265.830  4.00000000e+02 
265.327  4.00000000e+02 
264.823  3.71000000e+02 
264.320  4.19000000e+02 
263.817  3.66000000e+02 
263.314  3.84000000e+02 
262.811  4.06000000e+02 
262.308  3.41000000e+02 
261.805  3.68000000e+02 
261.302  3.88000000e+02 
260.798  3.69000000e+02 
260.295  3.96000000e+02 
259.792  3.90000000e+02 
259.289  3.83000000e+02 
258.786  3.75000000e+02 
258.283  3.97000000e+02 
257.780  4.25000000e+02 
257.277  3.88000000e+02 
256.773  4.31000000e+02 
256.270  4.10000000e+02 
255.767  4.23000000e+02 
255.264  3.89000000e+02 
254.761  3.96000000e+02 
254.258  4.02000000e+02 
253.755  3.77000000e+02 
253.252  3.76000000e+02 
252.748  3.74000000e+02 
252.245  3.71000000e+02 
251.742  4.02000000e+02 
251.239  3.91000000e+02 
250.736  3.79000000e+02 
250.233  3.88000000e+02 
249.730  3.63000000e+02 
249.227  4.26000000e+02 
248.723  4.21000000e+02 
248.220  4.00000000e+02 
247.717  4.02000000e+02 
247.214  3.73000000e+02 
246.711  4.37000000e+02 
246.208  4.23000000e+02 
245.705  3.71000000e+02 
245.202  3.44000000e+02 
244.698  4.19000000e+02 
244.195  4.03000000e+02 
243.692  3.58000000e+02 
243.189  3.98000000e+02 
242.686  3.85000000e+02 
242.183  3.72000000e+02 
241.680  3.73000000e+02 
241.177  3.88000000e+02 
240.673  3.45000000e+02 
240.170  4.05000000e+02 
239.667  3.73000000e+02 
239.164  4.30000000e+02 
238.661  4.19000000e+02 
238.158  4.18000000e+02 
237.655  4.28000000e+02 
237.152  4.33000000e+02 
236.648  4.55000000e+02 
236.145  3.81000000e+02 
235.642  3.85000000e+02 
235.139  4.50000000e+02 
234.636  3.94000000e+02 
234.133  4.26000000e+02 
233.630  4.56000000e+02 
233.127  4.66000000e+02 
232.623  4.45000000e+02 
232.120  3.89000000e+02 
231.617  4.12000000e+02 
231.114  4.23000000e+02 
230.611  4.01000000e+02 
230.108  3.98000000e+02 
229.605  4.23000000e+02 
229.102  4.10000000e+02 
228.598  4.14000000e+02 
228.095  4.17000000e+02 
227.592  4.21000000e+02 
227.089  4.32000000e+02 
226.586  4.34000000e+02 
226.083  3.92000000e+02 
225.580  4.26000000e+02 
225.077  4.35000000e+02 
224.573  4.14000000e+02 
224.070  4.25000000e+02 
223.567  3.85000000e+02 
223.064  3.93000000e+02 
222.561  4.24000000e+02 
222.058  4.14000000e+02 
221.555  4.34000000e+02 
221.052  4.25000000e+02 
220.548  4.35000000e+02 
220.045  4.05000000e+02 
219.542  4.12000000e+02 
219.039  4.06000000e+02 
218.536  3.83000000e+02 
218.033  4.04000000e+02 
217.530  4.51000000e+02 
217.027  4.24000000e+02 
216.523  4.59000000e+02 
216.020  4.03000000e+02 
215.517  4.18000000e+02 
215.014  4.23000000e+02 
214.511  4.01000000e+02 
214.008  4.37000000e+02 
213.505  4.22000000e+02 
213.002  4.26000000e+02 
212.498  4.53000000e+02 
211.995  4.44000000e+02 
211.492  4.35000000e+02 
210.989  3.93000000e+02 
210.486  3.67000000e+02 
209.983  4.30000000e+02 
209.480  4.15000000e+02 
208.977  4.24000000e+02 
208.473  4.44000000e+02 
207.970  4.55000000e+02 
207.467  4.60000000e+02 
206.964  4.29000000e+02 
206.461  4.28000000e+02 
205.958  4.27000000e+02 
205.455  4.08000000e+02 
204.952  4.25000000e+02 
204.448  4.39000000e+02 
203.945  4.48000000e+02 
203.442  4.25000000e+02 
202.939  4.44000000e+02 
202.436  3.93000000e+02 
201.933  4.46000000e+02 
201.430  4.14000000e+02 
200.927  4.61000000e+02 
200.423  4.21000000e+02 
199.920  4.38000000e+02 
199.417  4.22000000e+02 
198.914  4.19000000e+02 
198.411  4.24000000e+02 
197.908  4.57000000e+02 
197.405  4.39000000e+02 
196.902  4.55000000e+02 
196.398  4.39000000e+02 
195.895  4.63000000e+02 
195.392  4.32000000e+02 
194.889  4.53000000e+02 
194.386  4.47000000e+02 
193.883  4.34000000e+02 
193.380  4.53000000e+02 
192.877  4.34000000e+02 
192.373  4.55000000e+02 
191.870  3.99000000e+02 
191.367  4.46000000e+02 
190.864  4.53000000e+02 
190.361  4.44000000e+02 
189.858  4.75000000e+02 
189.355  4.02000000e+02 
188.852  4.56000000e+02 
188.348  4.29000000e+02 
187.845  4.81000000e+02 
187.342  4.60000000e+02 
186.839  4.36000000e+02 
186.336  4.16000000e+02 
185.833  4.66000000e+02 
185.330  4.86000000e+02 
184.827  4.62000000e+02 
184.323  4.45000000e+02 
183.820  4.39000000e+02 
183.317  4.64000000e+02 
182.814  4.49000000e+02 
182.311  4.22000000e+02 
181.808  4.84000000e+02 
181.305  4.36000000e+02 
180.802  4.53000000e+02 
180.298  4.81000000e+02 
179.795  4.66000000e+02 
179.292  4.34000000e+02 
178.789  4.43000000e+02 
178.286  4.56000000e+02 
177.783  4.65000000e+02 
177.280  4.94000000e+02 
176.777  4.46000000e+02 
176.273  4.72000000e+02 
175.770  4.77000000e+02 
175.267  4.83000000e+02 
174.764  4.77000000e+02 
174.261  3.98000000e+02 
173.758  4.69000000e+02 
173.255  4.65000000e+02 
172.752  4.03000000e+02 
172.248  4.43000000e+02 
171.745  4.31000000e+02 
171.242  4.39000000e+02 
170.739  4.67000000e+02 
170.236  4.73000000e+02 
169.733  4.32000000e+02 
169.230  4.83000000e+02 
168.727  4.64000000e+02 
168.223  4.81000000e+02 
167.720  4.82000000e+02 
167.217  4.50000000e+02 
166.714  4.73000000e+02 
166.211  4.87000000e+02 
165.708  4.71000000e+02 
165.205  4.69000000e+02 
164.702  4.58000000e+02 
164.198  4.67000000e+02 
163.695  4.54000000e+02 
163.192  4.88000000e+02 
162.689  4.71000000e+02 
162.186  4.78000000e+02 
161.683  5.02000000e+02 
161.180  4.70000000e+02 
160.677  4.99000000e+02 
160.173  5.13000000e+02 
159.670  4.97000000e+02 
159.167  4.78000000e+02 
158.664  4.81000000e+02 
158.161  5.18000000e+02 
157.658  5.24000000e+02 
157.155  4.85000000e+02 
156.652  4.87000000e+02 
156.148  4.89000000e+02 
155.645  4.44000000e+02 
155.142  4.66000000e+02 
154.639  4.65000000e+02 
154.136  5.10000000e+02 
153.633  4.60000000e+02 
153.130  4.70000000e+02 
152.627  4.77000000e+02 
152.123  4.82000000e+02 
151.620  4.75000000e+02 
151.117  4.72000000e+02 
150.614  5.12000000e+02 
150.111  4.83000000e+02 
149.608  4.56000000e+02 
149.105  4.95000000e+02 
148.602  4.29000000e+02 
148.098  4.88000000e+02 
147.595  4.75000000e+02 
147.092  4.55000000e+02 
146.589  4.70000000e+02 
146.086  5.35000000e+02 
145.583  4.81000000e+02 
145.080  5.13000000e+02 
144.577  4.81000000e+02 
144.073  4.86000000e+02 
143.570  5.29000000e+02 
143.067  5.05000000e+02 
142.564  4.86000000e+02 
142.061  4.73000000e+02 
141.558  4.60000000e+02 
141.055  5.01000000e+02 
140.552  4.99000000e+02 
140.048  4.91000000e+02 
139.545  4.71000000e+02 
139.042  4.64000000e+02 
138.539  4.22000000e+02 
138.036  4.68000000e+02 
137.533  4.50000000e+02 
137.030  4.59000000e+02 
136.527  4.58000000e+02 
136.023  4.68000000e+02 
135.520  4.89000000e+02 
135.017  4.64000000e+02 
134.514  4.70000000e+02 
134.011  4.65000000e+02 
133.508  4.76000000e+02 
133.005  5.31000000e+02 
132.502  5.32000000e+02 
131.998  6.09000000e+02 
131.495  6.86000000e+02 
130.992  7.41000000e+02 
130.489  8.24000000e+02 
129.986  7.41000000e+02 
129.483  6.93000000e+02 
128.980  6.12000000e+02 
128.477  5.10000000e+02 
127.973  4.70000000e+02 
127.470  4.91000000e+02 
126.967  4.36000000e+02 
126.464  4.68000000e+02 
125.961  4.29000000e+02 
125.458  4.55000000e+02 
124.955  4.18000000e+02 
124.452  3.80000000e+02 
123.948  4.14000000e+02 
123.445  4.38000000e+02 
122.942  4.21000000e+02 
122.439  4.21000000e+02 
121.936  4.06000000e+02 
121.433  4.23000000e+02 
120.930  3.82000000e+02 
120.427  4.13000000e+02 
119.923  4.26000000e+02 
119.420  4.08000000e+02 
118.917  3.79000000e+02 
118.414  3.52000000e+02 
117.911  4.26000000e+02 
117.408  4.12000000e+02 
116.905  4.06000000e+02 
116.402  3.92000000e+02 
115.898  4.10000000e+02 
115.395  3.95000000e+02 
114.892  4.21000000e+02 
114.389  4.13000000e+02 
113.886  4.12000000e+02 
113.383  4.07000000e+02 
112.880  3.96000000e+02 
112.377  4.53000000e+02 
111.873  4.10000000e+02 
111.370  4.15000000e+02 
110.867  4.66000000e+02 
110.364  3.95000000e+02 
109.861  4.13000000e+02 
109.358  4.37000000e+02 
108.855  4.32000000e+02 
108.352  4.79000000e+02 
107.848  4.42000000e+02 
107.345  4.24000000e+02 
106.842  4.16000000e+02 
106.339  4.14000000e+02 
105.836  4.36000000e+02 
105.333  4.12000000e+02 
104.830  4.46000000e+02 
104.327  4.26000000e+02 
103.823  4.09000000e+02 
103.320  3.93000000e+02 
102.817  4.03000000e+02 
102.314  4.21000000e+02 
101.811  3.80000000e+02 
101.308  3.73000000e+02 
100.805  4.02000000e+02 
100.302  3.94000000e+02 
99.798   3.53000000e+02 
99.295   3.81000000e+02 
98.792   3.34000000e+02 
98.289   3.50000000e+02 
97.786   3.28000000e+02 
97.283   3.64000000e+02 
96.780   3.48000000e+02 
96.277   3.83000000e+02 
95.773   3.71000000e+02 
95.270   3.24000000e+02 
94.767   3.19000000e+02 
94.264   3.47000000e+02 
93.761   3.25000000e+02 
93.258   3.34000000e+02 
92.755   3.32000000e+02 
92.252   3.05000000e+02 
91.748   3.13000000e+02 
91.245   3.23000000e+02 
90.742   3.26000000e+02 
90.239   3.20000000e+02 
89.736   3.20000000e+02 
89.233   3.39000000e+02 
88.730   3.33000000e+02 
88.227   3.70000000e+02 
87.723   3.85000000e+02 
87.220   4.61000000e+02 
86.717   5.51000000e+02 
86.214   6.26000000e+02 
85.711   7.33000000e+02 
85.208   7.76000000e+02 
84.705   8.01000000e+02 
84.202   8.26000000e+02 
83.698   8.67000000e+02 
83.195   9.55000000e+02 
82.692   9.24000000e+02 
82.189   7.73000000e+02 
81.686   5.23000000e+02 
81.183   4.04000000e+02 
80.680   2.83000000e+02 
80.177   2.51000000e+02 
79.673   2.24000000e+02 
79.170   1.81000000e+02 
78.667   1.89000000e+02 
78.164   1.33000000e+02 
77.661   1.68000000e+02 
77.158   1.39000000e+02 
76.655   1.25000000e+02 
76.152   1.24000000e+02 
75.648   1.27000000e+02 
75.145   1.11000000e+02 
74.642   1.00000000e+02 
74.139   1.03000000e+02 
73.636   1.27000000e+02 
73.133   1.11000000e+02 
72.630   9.50000000e+01 
72.127   1.17000000e+02 
71.623   1.04000000e+02 
71.120   1.16000000e+02 
70.617   1.14000000e+02 
70.114   9.60000000e+01 
69.611   1.06000000e+02 
69.108   1.00000000e+02 
68.605   1.07000000e+02 
68.102   1.18000000e+02 
67.598   1.06000000e+02 
67.095   1.06000000e+02 
66.592   9.00000000e+01 
66.089   1.04000000e+02 
65.586   9.50000000e+01 
65.083   1.08000000e+02 
64.580   1.04000000e+02 
64.077   1.08000000e+02 
63.573   9.40000000e+01 
63.070   1.15000000e+02 
62.567   1.15000000e+02 
62.064   9.90000000e+01 
61.561   8.90000000e+01 
61.058   1.27000000e+02 
60.555   8.60000000e+01 
60.052   1.14000000e+02 
59.548   1.10000000e+02 
59.045   1.01000000e+02 
58.542   1.05000000e+02 
58.039   8.90000000e+01 
57.536   1.15000000e+02 
57.033   1.02000000e+02 
56.530   9.70000000e+01 
56.027   9.50000000e+01 
55.523   1.10000000e+02 
55.020   1.05000000e+02 
54.517   1.18000000e+02 
54.014   1.24000000e+02 
53.511   1.08000000e+02 
53.008   1.12000000e+02 
52.505   1.06000000e+02 
52.002   1.13000000e+02 
51.498   1.03000000e+02 
50.995   9.60000000e+01 
50.492   1.09000000e+02 
49.989   1.18000000e+02 
49.486   1.16000000e+02 
48.983   9.10000000e+01 
48.480   1.16000000e+02 
47.977   1.10000000e+02 
47.473   1.27000000e+02 
46.970   1.10000000e+02 
46.467   1.19000000e+02 
45.964   8.70000000e+01 
45.461   1.20000000e+02 
44.958   9.60000000e+01 
44.455   9.60000000e+01 
43.952   9.80000000e+01 
43.448   1.08000000e+02 
42.945   1.24000000e+02 
42.442   1.06000000e+02 
41.939   1.21000000e+02 
41.436   1.09000000e+02 
40.933   9.70000000e+01 
40.430   1.12000000e+02 
39.927   1.08000000e+02 
39.423   1.13000000e+02 
38.920   1.17000000e+02 
38.417   1.39000000e+02 
37.914   1.18000000e+02 
37.411   1.08000000e+02 
36.908   1.08000000e+02 
36.405   1.16000000e+02 
35.902   1.07000000e+02 
35.398   1.31000000e+02 
34.895   1.18000000e+02 
34.392   1.46000000e+02 
33.889   1.28000000e+02 
33.386   1.36000000e+02 
32.883   1.23000000e+02 
32.380   1.20000000e+02 
31.877   1.30000000e+02 
31.373   1.40000000e+02 
30.870   1.17000000e+02 
30.367   1.22000000e+02 
29.864   1.16000000e+02 
29.361   9.60000000e+01 
28.858   1.19000000e+02 
28.355   1.02000000e+02 
27.852   9.80000000e+01 
27.348   1.11000000e+02 
26.845   9.60000000e+01 
26.342   1.34000000e+02 
25.839   9.90000000e+01 
25.336   1.01000000e+02 
24.833   1.19000000e+02 
24.330   1.15000000e+02 
23.827   1.08000000e+02 
23.323   1.07000000e+02 
22.820   9.90000000e+01 
22.317   1.00000000e+02 
21.814   1.07000000e+02 
21.311   1.00000000e+02 
20.808   7.50000000e+01 
20.305   7.00000000e+01 
19.802   6.50000000e+01 
19.298   7.60000000e+01 
18.795   7.40000000e+01 
18.292   7.00000000e+01 
17.789   7.90000000e+01 
17.286   6.50000000e+01 
16.783   7.70000000e+01 
16.280   6.90000000e+01 
15.777   8.60000000e+01 
15.273   9.50000000e+01 
14.770   1.01000000e+02 
14.267   1.14000000e+02 
13.764   1.02000000e+02 
13.261   9.90000000e+01 
12.758   1.72000000e+02 
12.255   2.70000000e+02 
11.752   3.48000000e+02 
11.248   4.48000000e+02 
10.745   4.85000000e+02 
10.242   3.63000000e+02 
9.739    2.40000000e+02 
9.236    1.44000000e+02 
8.733    8.20000000e+01 
8.230    4.70000000e+01 
7.727    1.30000000e+01 
7.223    7.00000000e+00 
6.720    3.00000000e+00 
6.217    1.00000000e+00 
5.714    2.00000000e+00 
5.211    4.00000000e+00 
4.708    2.00000000e+00 
4.205    0.00000000e+00 
3.702    3.00000000e+00 
3.198    1.00000000e+00 
2.695    4.00000000e+00 
2.192    1.00000000e+00 
1.689    7.00000000e+00 
1.186    1.00000000e+00 
0.683    4.00000000e+00 
0.180    1.00000000e+00 
-0.323   1.00000000e+00 
-0.827   0.00000000e+00 

