EXPERIMENT FILE
Version = 2

[ Experiment Parameters ]
Experiment Description= <none> 
Number_of_Regions_in_Experiment= 1 

Original_File_name= C:\alexesca\data\0123Theta20.xps 
Instrument= HP ESCA West
Date= 01-23-2013
Time=  11:01:00

[ Layer Parameters ]
Layer_Type= XPS

[ Region 1 Parameters ]
Region_Description = Au 4f Dithered 95eV Center 9.2eV Width
BEcenter(eV) = 95.000000
BEwidth(eV) = 9.200000
BEstep(eV) = 0.035938
Dwell_Time(sec) = 1.000000
N_o_scans = 1  
N_o_Channels = 256  
Scan_mode = 0  (DITHERED)

[ L= 1 R= 1 ]
BEcenter= 95.000  
BEwidth= -9.164  
Excitation= 1486.600
Time_p_channel= 256.000 
Size= 256
99.582   5.20000000e+02 
99.546   5.57000000e+02 
99.510   5.39000000e+02 
99.474   5.57000000e+02 
99.438   5.60000000e+02 
99.402   5.57000000e+02 
99.366   5.57000000e+02 
99.330   5.31000000e+02 
99.295   5.44000000e+02 
99.259   5.14000000e+02 
99.223   5.52000000e+02 
99.187   5.44000000e+02 
99.151   5.41000000e+02 
99.115   5.42000000e+02 
99.079   5.58000000e+02 
99.043   5.46000000e+02 
99.007   5.02000000e+02 
98.971   5.24000000e+02 
98.935   5.32000000e+02 
98.899   5.17000000e+02 
98.863   5.18000000e+02 
98.827   5.44000000e+02 
98.791   5.50000000e+02 
98.755   5.44000000e+02 
98.720   5.49000000e+02 
98.684   5.61000000e+02 
98.648   5.44000000e+02 
98.612   5.53000000e+02 
98.576   5.65000000e+02 
98.540   5.66000000e+02 
98.504   5.58000000e+02 
98.468   5.91000000e+02 
98.432   5.19000000e+02 
98.396   5.58000000e+02 
98.360   5.49000000e+02 
98.324   5.62000000e+02 
98.288   5.82000000e+02 
98.252   5.44000000e+02 
98.216   5.86000000e+02 
98.180   6.12000000e+02 
98.145   6.10000000e+02 
98.109   5.94000000e+02 
98.073   5.92000000e+02 
98.037   6.12000000e+02 
98.001   6.27000000e+02 
97.965   5.93000000e+02 
97.929   5.92000000e+02 
97.893   6.27000000e+02 
97.857   6.18000000e+02 
97.821   6.52000000e+02 
97.785   6.79000000e+02 
97.749   7.29000000e+02 
97.713   7.08000000e+02 
97.677   7.02000000e+02 
97.641   6.82000000e+02 
97.605   7.16000000e+02 
97.570   7.55000000e+02 
97.534   7.65000000e+02 
97.498   7.81000000e+02 
97.462   7.80000000e+02 
97.426   8.45000000e+02 
97.390   8.73000000e+02 
97.354   8.47000000e+02 
97.318   8.76000000e+02 
97.282   9.47000000e+02 
97.246   9.55000000e+02 
97.210   1.01000000e+03 
97.174   1.07500000e+03 
97.138   1.14200000e+03 
97.102   1.23400000e+03 
97.066   1.25300000e+03 
97.030   1.35400000e+03 
96.995   1.38100000e+03 
96.959   1.47100000e+03 
96.923   1.57400000e+03 
96.887   1.60300000e+03 
96.851   1.66800000e+03 
96.815   1.81400000e+03 
96.779   1.93600000e+03 
96.743   2.07100000e+03 
96.707   2.13600000e+03 
96.671   2.30200000e+03 
96.635   2.41600000e+03 
96.599   2.47200000e+03 
96.563   2.58600000e+03 
96.527   2.70600000e+03 
96.491   2.83000000e+03 
96.455   2.89600000e+03 
96.420   2.98100000e+03 
96.384   3.04500000e+03 
96.348   3.21200000e+03 
96.312   3.23300000e+03 
96.276   3.19400000e+03 
96.240   3.32900000e+03 
96.204   3.24400000e+03 
96.168   3.21900000e+03 
96.132   3.13000000e+03 
96.096   3.06300000e+03 
96.060   3.01400000e+03 
96.024   2.87000000e+03 
95.988   2.73800000e+03 
95.952   2.70700000e+03 
95.916   2.49300000e+03 
95.880   2.39300000e+03 
95.845   2.12600000e+03 
95.809   2.05000000e+03 
95.773   1.92300000e+03 
95.737   1.74800000e+03 
95.701   1.73600000e+03 
95.665   1.51000000e+03 
95.629   1.34900000e+03 
95.593   1.39600000e+03 
95.557   1.22800000e+03 
95.521   1.08700000e+03 
95.485   1.10100000e+03 
95.449   1.03000000e+03 
95.413   9.39000000e+02 
95.377   9.32000000e+02 
95.341   8.83000000e+02 
95.305   7.99000000e+02 
95.270   7.70000000e+02 
95.234   7.17000000e+02 
95.198   7.17000000e+02 
95.162   6.80000000e+02 
95.126   7.18000000e+02 
95.090   6.57000000e+02 
95.054   6.48000000e+02 
95.018   6.47000000e+02 
94.982   6.30000000e+02 
94.946   6.31000000e+02 
94.910   6.31000000e+02 
94.874   6.15000000e+02 
94.838   5.94000000e+02 
94.802   5.59000000e+02 
94.766   5.65000000e+02 
94.730   5.44000000e+02 
94.695   5.18000000e+02 
94.659   5.80000000e+02 
94.623   5.95000000e+02 
94.587   5.33000000e+02 
94.551   5.66000000e+02 
94.515   5.97000000e+02 
94.479   5.69000000e+02 
94.443   5.80000000e+02 
94.407   5.50000000e+02 
94.371   6.01000000e+02 
94.335   5.91000000e+02 
94.299   5.71000000e+02 
94.263   5.76000000e+02 
94.227   5.48000000e+02 
94.191   6.17000000e+02 
94.155   6.53000000e+02 
94.120   6.00000000e+02 
94.084   6.03000000e+02 
94.048   6.94000000e+02 
94.012   6.57000000e+02 
93.976   6.45000000e+02 
93.940   6.85000000e+02 
93.904   6.84000000e+02 
93.868   7.74000000e+02 
93.832   7.29000000e+02 
93.796   7.29000000e+02 
93.760   7.65000000e+02 
93.724   7.93000000e+02 
93.688   9.20000000e+02 
93.652   8.99000000e+02 
93.616   9.86000000e+02 
93.580   9.73000000e+02 
93.545   1.12400000e+03 
93.509   1.10500000e+03 
93.473   1.17100000e+03 
93.437   1.21100000e+03 
93.401   1.28900000e+03 
93.365   1.34300000e+03 
93.329   1.47900000e+03 
93.293   1.55500000e+03 
93.257   1.66800000e+03 
93.221   1.87000000e+03 
93.185   1.89100000e+03 
93.149   2.00600000e+03 
93.113   2.21000000e+03 
93.077   2.37300000e+03 
93.041   2.45800000e+03 
93.005   2.54000000e+03 
92.970   2.73400000e+03 
92.934   2.82700000e+03 
92.898   2.91200000e+03 
92.862   3.19400000e+03 
92.826   3.34200000e+03 
92.790   3.46000000e+03 
92.754   3.54200000e+03 
92.718   3.59300000e+03 
92.682   3.82700000e+03 
92.646   3.87000000e+03 
92.610   3.89500000e+03 
92.574   3.91100000e+03 
92.538   3.99000000e+03 
92.502   4.03100000e+03 
92.466   4.01500000e+03 
92.430   3.86600000e+03 
92.395   3.84300000e+03 
92.359   3.60100000e+03 
92.323   3.44200000e+03 
92.287   3.31700000e+03 
92.251   3.12900000e+03 
92.215   2.84600000e+03 
92.179   2.71300000e+03 
92.143   2.51200000e+03 
92.107   2.31000000e+03 
92.071   2.13300000e+03 
92.035   1.94800000e+03 
91.999   1.73400000e+03 
91.963   1.58700000e+03 
91.927   1.45300000e+03 
91.891   1.32000000e+03 
91.855   1.20400000e+03 
91.820   1.08200000e+03 
91.784   1.06100000e+03 
91.748   8.79000000e+02 
91.712   8.66000000e+02 
91.676   7.84000000e+02 
91.640   7.64000000e+02 
91.604   7.14000000e+02 
91.568   5.89000000e+02 
91.532   6.18000000e+02 
91.496   5.58000000e+02 
91.460   5.34000000e+02 
91.424   5.35000000e+02 
91.388   5.08000000e+02 
91.352   5.19000000e+02 
91.316   4.45000000e+02 
91.280   4.84000000e+02 
91.245   3.97000000e+02 
91.209   3.94000000e+02 
91.173   3.50000000e+02 
91.137   3.70000000e+02 
91.101   3.59000000e+02 
91.065   3.50000000e+02 
91.029   3.69000000e+02 
90.993   3.73000000e+02 
90.957   3.75000000e+02 
90.921   3.20000000e+02 
90.885   3.39000000e+02 
90.849   3.07000000e+02 
90.813   3.19000000e+02 
90.777   3.27000000e+02 
90.741   3.15000000e+02 
90.705   3.16000000e+02 
90.670   3.33000000e+02 
90.634   2.99000000e+02 
90.598   2.68000000e+02 
90.562   2.63000000e+02 
90.526   3.06000000e+02 
90.490   2.92000000e+02 
90.454   2.44000000e+02 
90.418   2.66000000e+02 

