EXPERIMENT FILE
Version = 2

[ Experiment Parameters ]
Experiment Description= <none> 
Number_of_Regions_in_Experiment= 1 

Original_File_name= C:\alexesca\data\0124TestNewSource.xps 
Instrument= HP ESCA West
Date= 01-28-2013
Time=  11:21:26

[ Layer Parameters ]
Layer_Type= XPS

[ Region 1 Parameters ]
Region_Description = Au 4f Dithered 84eV Center 9.2eV Width
BEcenter(eV) = 84.000000
BEwidth(eV) = 9.200000
BEstep(eV) = 0.035938
Dwell_Time(sec) = 1.000000
N_o_scans = 1  
N_o_Channels = 256  
Scan_mode = 0  (DITHERED)

[ L= 1 R= 1 ]
BEcenter= 84.000  
BEwidth= -9.164  
Excitation= 1478.920
Time_p_channel= 256.000 
Size= 256
88.582   5.03000000e+02 
88.546   4.49000000e+02 
88.510   4.71000000e+02 
88.474   4.63000000e+02 
88.438   4.36000000e+02 
88.402   4.36000000e+02 
88.366   4.18000000e+02 
88.330   4.63000000e+02 
88.295   5.03000000e+02 
88.259   4.31000000e+02 
88.223   4.58000000e+02 
88.187   4.86000000e+02 
88.151   4.76000000e+02 
88.115   4.76000000e+02 
88.079   4.50000000e+02 
88.043   4.45000000e+02 
88.007   4.63000000e+02 
87.971   4.78000000e+02 
87.935   4.12000000e+02 
87.899   4.69000000e+02 
87.863   4.98000000e+02 
87.827   4.79000000e+02 
87.791   4.72000000e+02 
87.755   4.93000000e+02 
87.720   4.81000000e+02 
87.684   4.31000000e+02 
87.648   4.35000000e+02 
87.612   4.71000000e+02 
87.576   4.51000000e+02 
87.540   4.46000000e+02 
87.504   4.53000000e+02 
87.468   4.70000000e+02 
87.432   4.32000000e+02 
87.396   4.10000000e+02 
87.360   4.74000000e+02 
87.324   4.79000000e+02 
87.288   4.61000000e+02 
87.252   4.37000000e+02 
87.216   4.34000000e+02 
87.180   4.40000000e+02 
87.145   4.66000000e+02 
87.109   4.54000000e+02 
87.073   4.34000000e+02 
87.037   4.26000000e+02 
87.001   4.20000000e+02 
86.965   4.59000000e+02 
86.929   4.13000000e+02 
86.893   4.59000000e+02 
86.857   4.57000000e+02 
86.821   4.21000000e+02 
86.785   4.24000000e+02 
86.749   4.46000000e+02 
86.713   4.53000000e+02 
86.677   4.32000000e+02 
86.641   4.44000000e+02 
86.605   4.34000000e+02 
86.570   4.17000000e+02 
86.534   4.43000000e+02 
86.498   4.51000000e+02 
86.462   4.46000000e+02 
86.426   4.32000000e+02 
86.390   4.35000000e+02 
86.354   4.49000000e+02 
86.318   4.71000000e+02 
86.282   4.45000000e+02 
86.246   4.71000000e+02 
86.210   4.60000000e+02 
86.174   4.48000000e+02 
86.138   4.77000000e+02 
86.102   4.43000000e+02 
86.066   4.56000000e+02 
86.030   4.36000000e+02 
85.995   4.97000000e+02 
85.959   4.42000000e+02 
85.923   4.28000000e+02 
85.887   4.60000000e+02 
85.851   4.21000000e+02 
85.815   4.42000000e+02 
85.779   4.62000000e+02 
85.743   4.61000000e+02 
85.707   4.61000000e+02 
85.671   4.57000000e+02 
85.635   4.14000000e+02 
85.599   4.22000000e+02 
85.563   4.44000000e+02 
85.527   5.00000000e+02 
85.491   4.62000000e+02 
85.455   4.85000000e+02 
85.420   4.41000000e+02 
85.384   4.67000000e+02 
85.348   4.70000000e+02 
85.312   4.65000000e+02 
85.276   4.06000000e+02 
85.240   4.19000000e+02 
85.204   4.37000000e+02 
85.168   4.83000000e+02 
85.132   4.48000000e+02 
85.096   4.81000000e+02 
85.060   4.57000000e+02 
85.024   4.58000000e+02 
84.988   4.85000000e+02 
84.952   4.49000000e+02 
84.916   5.04000000e+02 
84.880   4.48000000e+02 
84.845   4.08000000e+02 
84.809   4.51000000e+02 
84.773   4.58000000e+02 
84.737   4.90000000e+02 
84.701   4.69000000e+02 
84.665   5.04000000e+02 
84.629   4.41000000e+02 
84.593   4.57000000e+02 
84.557   4.22000000e+02 
84.521   4.64000000e+02 
84.485   4.67000000e+02 
84.449   4.20000000e+02 
84.413   4.78000000e+02 
84.377   4.42000000e+02 
84.341   4.47000000e+02 
84.305   4.48000000e+02 
84.270   4.53000000e+02 
84.234   4.67000000e+02 
84.198   4.59000000e+02 
84.162   4.09000000e+02 
84.126   4.05000000e+02 
84.090   4.96000000e+02 
84.054   4.30000000e+02 
84.018   4.46000000e+02 
83.982   4.62000000e+02 
83.946   3.92000000e+02 
83.910   4.42000000e+02 
83.874   4.69000000e+02 
83.838   4.36000000e+02 
83.802   4.31000000e+02 
83.766   4.59000000e+02 
83.730   4.33000000e+02 
83.695   4.01000000e+02 
83.659   4.36000000e+02 
83.623   4.38000000e+02 
83.587   4.41000000e+02 
83.551   4.48000000e+02 
83.515   4.17000000e+02 
83.479   4.03000000e+02 
83.443   4.04000000e+02 
83.407   4.43000000e+02 
83.371   4.27000000e+02 
83.335   4.32000000e+02 
83.299   3.98000000e+02 
83.263   4.46000000e+02 
83.227   4.08000000e+02 
83.191   4.37000000e+02 
83.155   4.56000000e+02 
83.120   4.39000000e+02 
83.084   4.32000000e+02 
83.048   4.22000000e+02 
83.012   4.58000000e+02 
82.976   3.81000000e+02 
82.940   4.40000000e+02 
82.904   4.11000000e+02 
82.868   4.21000000e+02 
82.832   4.28000000e+02 
82.796   4.14000000e+02 
82.760   4.08000000e+02 
82.724   4.56000000e+02 
82.688   4.12000000e+02 
82.652   4.49000000e+02 
82.616   4.41000000e+02 
82.580   4.11000000e+02 
82.545   4.22000000e+02 
82.509   4.20000000e+02 
82.473   4.22000000e+02 
82.437   4.30000000e+02 
82.401   3.94000000e+02 
82.365   4.36000000e+02 
82.329   4.12000000e+02 
82.293   3.96000000e+02 
82.257   4.43000000e+02 
82.221   4.15000000e+02 
82.185   4.23000000e+02 
82.149   4.40000000e+02 
82.113   4.36000000e+02 
82.077   4.08000000e+02 
82.041   4.37000000e+02 
82.005   3.99000000e+02 
81.970   4.06000000e+02 
81.934   4.03000000e+02 
81.898   4.07000000e+02 
81.862   4.02000000e+02 
81.826   3.96000000e+02 
81.790   4.07000000e+02 
81.754   4.28000000e+02 
81.718   3.91000000e+02 
81.682   3.89000000e+02 
81.646   4.12000000e+02 
81.610   4.00000000e+02 
81.574   4.18000000e+02 
81.538   3.99000000e+02 
81.502   3.98000000e+02 
81.466   4.01000000e+02 
81.430   4.10000000e+02 
81.395   4.02000000e+02 
81.359   4.12000000e+02 
81.323   4.18000000e+02 
81.287   4.44000000e+02 
81.251   4.13000000e+02 
81.215   4.11000000e+02 
81.179   3.62000000e+02 
81.143   4.23000000e+02 
81.107   3.97000000e+02 
81.071   3.99000000e+02 
81.035   3.98000000e+02 
80.999   3.90000000e+02 
80.963   3.73000000e+02 
80.927   3.69000000e+02 
80.891   3.99000000e+02 
80.855   3.82000000e+02 
80.820   3.86000000e+02 
80.784   4.38000000e+02 
80.748   3.96000000e+02 
80.712   4.02000000e+02 
80.676   3.94000000e+02 
80.640   3.77000000e+02 
80.604   3.52000000e+02 
80.568   4.02000000e+02 
80.532   3.82000000e+02 
80.496   3.74000000e+02 
80.460   3.78000000e+02 
80.424   3.49000000e+02 
80.388   3.64000000e+02 
80.352   3.85000000e+02 
80.316   3.93000000e+02 
80.280   4.08000000e+02 
80.245   3.97000000e+02 
80.209   3.85000000e+02 
80.173   3.58000000e+02 
80.137   3.83000000e+02 
80.101   4.00000000e+02 
80.065   3.13000000e+02 
80.029   3.85000000e+02 
79.993   3.65000000e+02 
79.957   3.72000000e+02 
79.921   3.73000000e+02 
79.885   3.44000000e+02 
79.849   3.89000000e+02 
79.813   4.04000000e+02 
79.777   3.44000000e+02 
79.741   3.43000000e+02 
79.705   3.66000000e+02 
79.670   3.64000000e+02 
79.634   3.58000000e+02 
79.598   3.88000000e+02 
79.562   3.41000000e+02 
79.526   3.55000000e+02 
79.490   3.58000000e+02 
79.454   3.54000000e+02 
79.418   3.46000000e+02 

