EXPERIMENT FILE
Version = 2

[ Experiment Parameters ]
Experiment Description= <none> 
Number_of_Regions_in_Experiment= 1 

Original_File_name= C:\alexesca\data\0204Er399.xps 
Instrument= HP ESCA West
Date= 02-04-2013
Time=  15:54:56

[ Layer Parameters ]
Layer_Type= XPS

[ Region 1 Parameters ]
Region_Description = Er399                              
BEcenter(eV) = 132.000000
BEwidth(eV) = 12.000000
BEstep(eV) = 0.035938
Dwell_Time(sec) = 1.000000
N_o_scans = 1  
N_o_Channels = 334  
Scan_mode = 0  (DITHERED)

[ L= 1 R= 1 ]
BEcenter= 132.000 
BEwidth= -11.967 
Excitation= 1486.600
Time_p_channel= 256.000 
Size= 334
137.984  4.25000000e+02 
137.948  4.03000000e+02 
137.912  4.17000000e+02 
137.876  4.02000000e+02 
137.840  4.45000000e+02 
137.804  3.83000000e+02 
137.768  3.92000000e+02 
137.732  3.98000000e+02 
137.696  3.91000000e+02 
137.660  4.32000000e+02 
137.624  4.27000000e+02 
137.588  3.88000000e+02 
137.552  4.07000000e+02 
137.516  3.90000000e+02 
137.480  4.59000000e+02 
137.445  4.06000000e+02 
137.409  4.20000000e+02 
137.373  4.23000000e+02 
137.337  4.19000000e+02 
137.301  3.95000000e+02 
137.265  4.16000000e+02 
137.229  4.28000000e+02 
137.193  3.66000000e+02 
137.157  3.84000000e+02 
137.121  3.76000000e+02 
137.085  3.76000000e+02 
137.049  3.56000000e+02 
137.013  3.74000000e+02 
136.977  4.09000000e+02 
136.941  3.79000000e+02 
136.905  3.98000000e+02 
136.870  3.65000000e+02 
136.834  3.89000000e+02 
136.798  3.83000000e+02 
136.762  3.74000000e+02 
136.726  3.93000000e+02 
136.690  3.53000000e+02 
136.654  3.70000000e+02 
136.618  3.71000000e+02 
136.582  3.88000000e+02 
136.546  3.56000000e+02 
136.510  3.61000000e+02 
136.474  3.91000000e+02 
136.438  4.18000000e+02 
136.402  3.85000000e+02 
136.366  3.57000000e+02 
136.330  3.79000000e+02 
136.295  3.58000000e+02 
136.259  3.64000000e+02 
136.223  3.94000000e+02 
136.187  3.72000000e+02 
136.151  3.44000000e+02 
136.115  3.64000000e+02 
136.079  3.29000000e+02 
136.043  3.85000000e+02 
136.007  3.62000000e+02 
135.971  3.47000000e+02 
135.935  3.38000000e+02 
135.899  3.24000000e+02 
135.863  3.86000000e+02 
135.827  3.62000000e+02 
135.791  3.23000000e+02 
135.755  3.50000000e+02 
135.720  3.12000000e+02 
135.684  3.38000000e+02 
135.648  3.32000000e+02 
135.612  3.06000000e+02 
135.576  3.30000000e+02 
135.540  3.43000000e+02 
135.504  3.29000000e+02 
135.468  3.08000000e+02 
135.432  3.08000000e+02 
135.396  3.20000000e+02 
135.360  3.42000000e+02 
135.324  3.45000000e+02 
135.288  3.36000000e+02 
135.252  3.22000000e+02 
135.216  3.00000000e+02 
135.180  2.94000000e+02 
135.145  3.14000000e+02 
135.109  2.95000000e+02 
135.073  3.03000000e+02 
135.037  3.42000000e+02 
135.001  3.27000000e+02 
134.965  3.41000000e+02 
134.929  2.98000000e+02 
134.893  3.19000000e+02 
134.857  2.84000000e+02 
134.821  3.19000000e+02 
134.785  3.32000000e+02 
134.749  2.92000000e+02 
134.713  3.20000000e+02 
134.677  3.09000000e+02 
134.641  3.08000000e+02 
134.605  3.20000000e+02 
134.570  2.80000000e+02 
134.534  3.05000000e+02 
134.498  3.00000000e+02 
134.462  2.88000000e+02 
134.426  3.10000000e+02 
134.390  3.10000000e+02 
134.354  2.78000000e+02 
134.318  2.76000000e+02 
134.282  2.86000000e+02 
134.246  2.58000000e+02 
134.210  2.74000000e+02 
134.174  2.62000000e+02 
134.138  2.65000000e+02 
134.102  2.92000000e+02 
134.066  2.68000000e+02 
134.030  2.77000000e+02 
133.995  2.81000000e+02 
133.959  2.61000000e+02 
133.923  3.02000000e+02 
133.887  2.72000000e+02 
133.851  2.89000000e+02 
133.815  2.78000000e+02 
133.779  2.73000000e+02 
133.743  2.84000000e+02 
133.707  2.96000000e+02 
133.671  2.83000000e+02 
133.635  2.94000000e+02 
133.599  2.73000000e+02 
133.563  2.80000000e+02 
133.527  2.59000000e+02 
133.491  2.59000000e+02 
133.455  2.53000000e+02 
133.420  2.92000000e+02 
133.384  2.86000000e+02 
133.348  2.66000000e+02 
133.312  2.62000000e+02 
133.276  2.93000000e+02 
133.240  2.26000000e+02 
133.204  2.68000000e+02 
133.168  2.58000000e+02 
133.132  2.75000000e+02 
133.096  2.65000000e+02 
133.060  2.44000000e+02 
133.024  2.74000000e+02 
132.988  2.51000000e+02 
132.952  2.62000000e+02 
132.916  2.31000000e+02 
132.880  2.51000000e+02 
132.845  2.61000000e+02 
132.809  2.61000000e+02 
132.773  2.38000000e+02 
132.737  2.56000000e+02 
132.701  2.25000000e+02 
132.665  2.52000000e+02 
132.629  2.29000000e+02 
132.593  2.38000000e+02 
132.557  2.68000000e+02 
132.521  2.62000000e+02 
132.485  2.30000000e+02 
132.449  1.92000000e+02 
132.413  2.50000000e+02 
132.377  2.48000000e+02 
132.341  2.40000000e+02 
132.305  2.41000000e+02 
132.270  2.35000000e+02 
132.234  2.07000000e+02 
132.198  2.49000000e+02 
132.162  2.39000000e+02 
132.126  2.31000000e+02 
132.090  2.38000000e+02 
132.054  2.28000000e+02 
132.018  2.11000000e+02 
131.982  2.24000000e+02 
131.946  2.26000000e+02 
131.910  2.25000000e+02 
131.874  2.33000000e+02 
131.838  2.30000000e+02 
131.802  2.29000000e+02 
131.766  2.10000000e+02 
131.730  2.07000000e+02 
131.695  1.97000000e+02 
131.659  2.27000000e+02 
131.623  2.15000000e+02 
131.587  2.19000000e+02 
131.551  2.35000000e+02 
131.515  2.25000000e+02 
131.479  2.05000000e+02 
131.443  1.96000000e+02 
131.407  2.34000000e+02 
131.371  2.22000000e+02 
131.335  2.12000000e+02 
131.299  2.21000000e+02 
131.263  2.01000000e+02 
131.227  2.05000000e+02 
131.191  2.10000000e+02 
131.155  2.20000000e+02 
131.120  2.08000000e+02 
131.084  1.80000000e+02 
131.048  2.16000000e+02 
131.012  2.13000000e+02 
130.976  2.02000000e+02 
130.940  1.98000000e+02 
130.904  2.04000000e+02 
130.868  1.98000000e+02 
130.832  2.13000000e+02 
130.796  1.89000000e+02 
130.760  2.02000000e+02 
130.724  2.23000000e+02 
130.688  1.92000000e+02 
130.652  1.49000000e+02 
130.616  1.87000000e+02 
130.580  1.89000000e+02 
130.545  1.79000000e+02 
130.509  2.05000000e+02 
130.473  1.91000000e+02 
130.437  2.33000000e+02 
130.401  1.97000000e+02 
130.365  1.93000000e+02 
130.329  1.99000000e+02 
130.293  1.99000000e+02 
130.257  1.73000000e+02 
130.221  1.77000000e+02 
130.185  1.94000000e+02 
130.149  1.75000000e+02 
130.113  2.03000000e+02 
130.077  1.89000000e+02 
130.041  2.06000000e+02 
130.005  1.74000000e+02 
129.970  1.88000000e+02 
129.934  1.79000000e+02 
129.898  2.17000000e+02 
129.862  1.83000000e+02 
129.826  1.86000000e+02 
129.790  1.63000000e+02 
129.754  1.67000000e+02 
129.718  2.07000000e+02 
129.682  1.74000000e+02 
129.646  1.59000000e+02 
129.610  1.68000000e+02 
129.574  1.79000000e+02 
129.538  1.68000000e+02 
129.502  1.51000000e+02 
129.466  1.81000000e+02 
129.430  1.64000000e+02 
129.395  1.56000000e+02 
129.359  1.63000000e+02 
129.323  1.72000000e+02 
129.287  1.88000000e+02 
129.251  1.72000000e+02 
129.215  1.70000000e+02 
129.179  1.50000000e+02 
129.143  1.87000000e+02 
129.107  1.50000000e+02 
129.071  1.55000000e+02 
129.035  1.83000000e+02 
128.999  1.74000000e+02 
128.963  1.76000000e+02 
128.927  1.92000000e+02 
128.891  1.64000000e+02 
128.855  1.80000000e+02 
128.820  1.58000000e+02 
128.784  1.75000000e+02 
128.748  1.88000000e+02 
128.712  1.67000000e+02 
128.676  1.72000000e+02 
128.640  1.68000000e+02 
128.604  1.74000000e+02 
128.568  1.88000000e+02 
128.532  1.60000000e+02 
128.496  1.57000000e+02 
128.460  1.70000000e+02 
128.424  1.77000000e+02 
128.388  1.84000000e+02 
128.352  1.83000000e+02 
128.316  1.54000000e+02 
128.280  1.34000000e+02 
128.245  1.84000000e+02 
128.209  1.61000000e+02 
128.173  1.56000000e+02 
128.137  1.82000000e+02 
128.101  1.77000000e+02 
128.065  1.72000000e+02 
128.029  1.79000000e+02 
127.993  1.55000000e+02 
127.957  1.86000000e+02 
127.921  1.62000000e+02 
127.885  1.72000000e+02 
127.849  1.53000000e+02 
127.813  1.65000000e+02 
127.777  1.73000000e+02 
127.741  1.73000000e+02 
127.705  1.55000000e+02 
127.670  1.57000000e+02 
127.634  1.53000000e+02 
127.598  1.68000000e+02 
127.562  1.47000000e+02 
127.526  1.47000000e+02 
127.490  1.54000000e+02 
127.454  1.73000000e+02 
127.418  1.56000000e+02 
127.382  1.55000000e+02 
127.346  1.68000000e+02 
127.310  1.42000000e+02 
127.274  1.43000000e+02 
127.238  1.45000000e+02 
127.202  1.64000000e+02 
127.166  1.77000000e+02 
127.130  1.70000000e+02 
127.095  1.48000000e+02 
127.059  1.65000000e+02 
127.023  1.33000000e+02 
126.987  1.41000000e+02 
126.951  1.54000000e+02 
126.915  1.69000000e+02 
126.879  1.47000000e+02 
126.843  1.69000000e+02 
126.807  1.52000000e+02 
126.771  1.62000000e+02 
126.735  1.75000000e+02 
126.699  1.61000000e+02 
126.663  1.50000000e+02 
126.627  1.53000000e+02 
126.591  1.33000000e+02 
126.555  1.55000000e+02 
126.520  1.70000000e+02 
126.484  1.73000000e+02 
126.448  1.55000000e+02 
126.412  1.53000000e+02 
126.376  1.58000000e+02 
126.340  1.57000000e+02 
126.304  1.64000000e+02 
126.268  1.43000000e+02 
126.232  1.64000000e+02 
126.196  1.54000000e+02 
126.160  1.21000000e+02 
126.124  1.43000000e+02 
126.088  1.72000000e+02 
126.052  1.40000000e+02 
126.016  1.55000000e+02 

