EXPERIMENT FILE
Version = 2

[ Experiment Parameters ]
Experiment Description= <none> 
Number_of_Regions_in_Experiment= 1 

Original_File_name= C:\alexesca\data\0211Dither.xps 
Instrument= HP ESCA West
Date= 02-11-2013
Time=  12:06:10

[ Layer Parameters ]
Layer_Type= XPS

[ Region 1 Parameters ]
Region_Description = 580Center50Width                   
BEcenter(eV) = 588.000000
BEwidth(eV) = 60.000000
BEstep(eV) = 0.035937
Dwell_Time(sec) = 1.000000
N_o_scans = 1  
N_o_Channels = 1670  
Scan_mode = 0  (DITHERED)

[ L= 1 R= 1 ]
BEcenter= 588.000 
BEwidth= -59.980 
Excitation= 1486.600
Time_p_channel= 256.000 
Size= 1670
617.990  1.95500000e+03 
617.954  1.93700000e+03 
617.918  1.93200000e+03 
617.882  2.03100000e+03 
617.846  1.90900000e+03 
617.810  1.94400000e+03 
617.774  1.97500000e+03 
617.738  1.90000000e+03 
617.702  1.99600000e+03 
617.666  1.96100000e+03 
617.630  1.98200000e+03 
617.595  1.86700000e+03 
617.559  1.99900000e+03 
617.523  1.91500000e+03 
617.487  1.95300000e+03 
617.451  1.99500000e+03 
617.415  1.95500000e+03 
617.379  1.93200000e+03 
617.343  1.95000000e+03 
617.307  1.88500000e+03 
617.271  1.90200000e+03 
617.235  1.90100000e+03 
617.199  2.02400000e+03 
617.163  1.94000000e+03 
617.127  1.95200000e+03 
617.091  1.84800000e+03 
617.055  1.95800000e+03 
617.020  1.97100000e+03 
616.984  1.92600000e+03 
616.948  1.94800000e+03 
616.912  1.95900000e+03 
616.876  1.94200000e+03 
616.840  1.94600000e+03 
616.804  2.04400000e+03 
616.768  1.99200000e+03 
616.732  2.00100000e+03 
616.696  1.97300000e+03 
616.660  1.94700000e+03 
616.624  1.96400000e+03 
616.588  1.95500000e+03 
616.552  1.97400000e+03 
616.516  1.97300000e+03 
616.480  1.95900000e+03 
616.445  1.92400000e+03 
616.409  1.98000000e+03 
616.373  1.86900000e+03 
616.337  1.96400000e+03 
616.301  1.94600000e+03 
616.265  1.92100000e+03 
616.229  1.91100000e+03 
616.193  1.99300000e+03 
616.157  1.97700000e+03 
616.121  1.95400000e+03 
616.085  1.89700000e+03 
616.049  2.00900000e+03 
616.013  1.96900000e+03 
615.977  1.86200000e+03 
615.941  1.91900000e+03 
615.905  2.00200000e+03 
615.870  2.01800000e+03 
615.834  1.96300000e+03 
615.798  1.91000000e+03 
615.762  1.99400000e+03 
615.726  1.90300000e+03 
615.690  1.96000000e+03 
615.654  2.08600000e+03 
615.618  2.02100000e+03 
615.582  1.94300000e+03 
615.546  1.85400000e+03 
615.510  1.93900000e+03 
615.474  1.92600000e+03 
615.438  1.86200000e+03 
615.402  1.94100000e+03 
615.366  1.97100000e+03 
615.330  1.96400000e+03 
615.295  1.86300000e+03 
615.259  1.91000000e+03 
615.223  1.93100000e+03 
615.187  1.94900000e+03 
615.151  1.96400000e+03 
615.115  1.90000000e+03 
615.079  1.95100000e+03 
615.043  1.98100000e+03 
615.007  1.99100000e+03 
614.971  1.93700000e+03 
614.935  2.02400000e+03 
614.899  1.88900000e+03 
614.863  1.97500000e+03 
614.827  1.93100000e+03 
614.791  2.01700000e+03 
614.755  1.94400000e+03 
614.720  1.99000000e+03 
614.684  1.94700000e+03 
614.648  1.99300000e+03 
614.612  1.94700000e+03 
614.576  1.93900000e+03 
614.540  1.93800000e+03 
614.504  1.94700000e+03 
614.468  1.95600000e+03 
614.432  1.96600000e+03 
614.396  1.92300000e+03 
614.360  1.98000000e+03 
614.324  1.93000000e+03 
614.288  1.97100000e+03 
614.252  1.94600000e+03 
614.216  2.04300000e+03 
614.180  1.91900000e+03 
614.145  2.00400000e+03 
614.109  1.94200000e+03 
614.073  1.99100000e+03 
614.037  2.00800000e+03 
614.001  2.04500000e+03 
613.965  1.93300000e+03 
613.929  1.92600000e+03 
613.893  1.91800000e+03 
613.857  1.88000000e+03 
613.821  1.95600000e+03 
613.785  1.92100000e+03 
613.749  1.93400000e+03 
613.713  2.01500000e+03 
613.677  2.01000000e+03 
613.641  1.94200000e+03 
613.605  1.99500000e+03 
613.570  1.94700000e+03 
613.534  1.98400000e+03 
613.498  1.96900000e+03 
613.462  1.90700000e+03 
613.426  1.95100000e+03 
613.390  1.97000000e+03 
613.354  1.98700000e+03 
613.318  1.95100000e+03 
613.282  1.94000000e+03 
613.246  1.95300000e+03 
613.210  1.91200000e+03 
613.174  1.90500000e+03 
613.138  1.84300000e+03 
613.102  1.91400000e+03 
613.066  2.00600000e+03 
613.030  1.92900000e+03 
612.995  1.87200000e+03 
612.959  2.01300000e+03 
612.923  1.93300000e+03 
612.887  1.98400000e+03 
612.851  1.98600000e+03 
612.815  2.02700000e+03 
612.779  2.02900000e+03 
612.743  1.98800000e+03 
612.707  1.98000000e+03 
612.671  2.02300000e+03 
612.635  1.92300000e+03 
612.599  1.90900000e+03 
612.563  1.93600000e+03 
612.527  1.92700000e+03 
612.491  1.93700000e+03 
612.455  1.90700000e+03 
612.420  1.93000000e+03 
612.384  1.95500000e+03 
612.348  1.95000000e+03 
612.312  2.00400000e+03 
612.276  1.98000000e+03 
612.240  1.95100000e+03 
612.204  1.88100000e+03 
612.168  1.98400000e+03 
612.132  2.04700000e+03 
612.096  1.97000000e+03 
612.060  1.92600000e+03 
612.024  1.92500000e+03 
611.988  1.91500000e+03 
611.952  1.94700000e+03 
611.916  1.95000000e+03 
611.880  1.96200000e+03 
611.845  1.94800000e+03 
611.809  1.98700000e+03 
611.773  2.08000000e+03 
611.737  1.94200000e+03 
611.701  2.00800000e+03 
611.665  1.93900000e+03 
611.629  1.97000000e+03 
611.593  1.98500000e+03 
611.557  1.94400000e+03 
611.521  1.96100000e+03 
611.485  1.92300000e+03 
611.449  2.03000000e+03 
611.413  1.91100000e+03 
611.377  1.92300000e+03 
611.341  1.94600000e+03 
611.305  1.89900000e+03 
611.270  1.92400000e+03 
611.234  1.94000000e+03 
611.198  1.95300000e+03 
611.162  1.92100000e+03 
611.126  1.87400000e+03 
611.090  1.93400000e+03 
611.054  1.95900000e+03 
611.018  1.96600000e+03 
610.982  1.91800000e+03 
610.946  1.98500000e+03 
610.910  2.04600000e+03 
610.874  1.99400000e+03 
610.838  1.98900000e+03 
610.802  1.92400000e+03 
610.766  1.93700000e+03 
610.730  1.94900000e+03 
610.695  1.90000000e+03 
610.659  1.98500000e+03 
610.623  1.90100000e+03 
610.587  1.95200000e+03 
610.551  1.87000000e+03 
610.515  1.94900000e+03 
610.479  1.94200000e+03 
610.443  1.90000000e+03 
610.407  2.01300000e+03 
610.371  1.96400000e+03 
610.335  2.01900000e+03 
610.299  2.01900000e+03 
610.263  1.99400000e+03 
610.227  1.96900000e+03 
610.191  1.98600000e+03 
610.155  1.92600000e+03 
610.120  1.99600000e+03 
610.084  1.88900000e+03 
610.048  1.92900000e+03 
610.012  1.89900000e+03 
609.976  2.05100000e+03 
609.940  1.94900000e+03 
609.904  1.95700000e+03 
609.868  1.91100000e+03 
609.832  1.98600000e+03 
609.796  1.96500000e+03 
609.760  1.98200000e+03 
609.724  1.99100000e+03 
609.688  1.95300000e+03 
609.652  1.94900000e+03 
609.616  1.90700000e+03 
609.580  1.96700000e+03 
609.545  1.99800000e+03 
609.509  1.97100000e+03 
609.473  1.96300000e+03 
609.437  1.87000000e+03 
609.401  2.08700000e+03 
609.365  1.93200000e+03 
609.329  1.97800000e+03 
609.293  1.91000000e+03 
609.257  1.97300000e+03 
609.221  1.95500000e+03 
609.185  1.98000000e+03 
609.149  1.93600000e+03 
609.113  1.89800000e+03 
609.077  2.00900000e+03 
609.041  1.96300000e+03 
609.005  1.95700000e+03 
608.970  1.95200000e+03 
608.934  1.94000000e+03 
608.898  1.95700000e+03 
608.862  1.99800000e+03 
608.826  1.98700000e+03 
608.790  2.02000000e+03 
608.754  1.97000000e+03 
608.718  1.95500000e+03 
608.682  1.95700000e+03 
608.646  1.89100000e+03 
608.610  1.94200000e+03 
608.574  2.00900000e+03 
608.538  1.96500000e+03 
608.502  1.95600000e+03 
608.466  1.95100000e+03 
608.430  1.92000000e+03 
608.395  1.93100000e+03 
608.359  1.91100000e+03 
608.323  1.96000000e+03 
608.287  2.00900000e+03 
608.251  1.97400000e+03 
608.215  1.92900000e+03 
608.179  1.97600000e+03 
608.143  1.92300000e+03 
608.107  1.98700000e+03 
608.071  1.98300000e+03 
608.035  1.89100000e+03 
607.999  2.01100000e+03 
607.963  1.97200000e+03 
607.927  2.02800000e+03 
607.891  1.85700000e+03 
607.855  1.97000000e+03 
607.820  1.98800000e+03 
607.784  1.95400000e+03 
607.748  1.99300000e+03 
607.712  1.91200000e+03 
607.676  1.94200000e+03 
607.640  1.90000000e+03 
607.604  2.00600000e+03 
607.568  2.00900000e+03 
607.532  1.97700000e+03 
607.496  1.96400000e+03 
607.460  1.98600000e+03 
607.424  1.96400000e+03 
607.388  1.92000000e+03 
607.352  1.95800000e+03 
607.316  1.91700000e+03 
607.280  1.99500000e+03 
607.245  2.03700000e+03 
607.209  1.98400000e+03 
607.173  1.96500000e+03 
607.137  1.91600000e+03 
607.101  2.04600000e+03 
607.065  1.94600000e+03 
607.029  1.92600000e+03 
606.993  1.89800000e+03 
606.957  1.98800000e+03 
606.921  1.94300000e+03 
606.885  1.94200000e+03 
606.849  1.87100000e+03 
606.813  1.90500000e+03 
606.777  1.88100000e+03 
606.741  1.94300000e+03 
606.705  1.96300000e+03 
606.670  1.99200000e+03 
606.634  1.98500000e+03 
606.598  1.95700000e+03 
606.562  2.00100000e+03 
606.526  1.95400000e+03 
606.490  1.98600000e+03 
606.454  1.97700000e+03 
606.418  2.04400000e+03 
606.382  1.90000000e+03 
606.346  2.00200000e+03 
606.310  2.01800000e+03 
606.274  1.94500000e+03 
606.238  1.96300000e+03 
606.202  1.85800000e+03 
606.166  2.03100000e+03 
606.130  1.94400000e+03 
606.095  1.98300000e+03 
606.059  1.94200000e+03 
606.023  1.93100000e+03 
605.987  1.93800000e+03 
605.951  1.98200000e+03 
605.915  1.95500000e+03 
605.879  1.94200000e+03 
605.843  2.00900000e+03 
605.807  1.95600000e+03 
605.771  1.97900000e+03 
605.735  1.92500000e+03 
605.699  2.03000000e+03 
605.663  1.94000000e+03 
605.627  1.95900000e+03 
605.591  1.93600000e+03 
605.555  1.95700000e+03 
605.520  1.95500000e+03 
605.484  1.94900000e+03 
605.448  1.95800000e+03 
605.412  2.02100000e+03 
605.376  1.92800000e+03 
605.340  1.93300000e+03 
605.304  1.92500000e+03 
605.268  2.01100000e+03 
605.232  1.94400000e+03 
605.196  2.00900000e+03 
605.160  1.97300000e+03 
605.124  1.91500000e+03 
605.088  1.86300000e+03 
605.052  1.96300000e+03 
605.016  1.99100000e+03 
604.980  1.97600000e+03 
604.945  1.93800000e+03 
604.909  1.93100000e+03 
604.873  1.95900000e+03 
604.837  1.97200000e+03 
604.801  1.95100000e+03 
604.765  1.93400000e+03 
604.729  2.03600000e+03 
604.693  1.98000000e+03 
604.657  1.97500000e+03 
604.621  1.98100000e+03 
604.585  1.96300000e+03 
604.549  2.01500000e+03 
604.513  2.03000000e+03 
604.477  1.92900000e+03 
604.441  1.99500000e+03 
604.405  1.95000000e+03 
604.370  1.90500000e+03 
604.334  1.91800000e+03 
604.298  1.98200000e+03 
604.262  1.92700000e+03 
604.226  1.93600000e+03 
604.190  1.99200000e+03 
604.154  1.87900000e+03 
604.118  1.93500000e+03 
604.082  1.99300000e+03 
604.046  1.92500000e+03 
604.010  1.98200000e+03 
603.974  1.97800000e+03 
603.938  1.99400000e+03 
603.902  1.94500000e+03 
603.866  1.88700000e+03 
603.830  1.95300000e+03 
603.795  1.89100000e+03 
603.759  1.95500000e+03 
603.723  1.94900000e+03 
603.687  1.83500000e+03 
603.651  1.96100000e+03 
603.615  1.98000000e+03 
603.579  1.95200000e+03 
603.543  1.97100000e+03 
603.507  1.98900000e+03 
603.471  2.06900000e+03 
603.435  1.92500000e+03 
603.399  1.89200000e+03 
603.363  1.95900000e+03 
603.327  2.02500000e+03 
603.291  1.94900000e+03 
603.255  2.00400000e+03 
603.220  1.94300000e+03 
603.184  2.00000000e+03 
603.148  1.98800000e+03 
603.112  1.95900000e+03 
603.076  1.99400000e+03 
603.040  1.97800000e+03 
603.004  1.93500000e+03 
602.968  1.94200000e+03 
602.932  1.93500000e+03 
602.896  1.97300000e+03 
602.860  1.97200000e+03 
602.824  1.96000000e+03 
602.788  1.97100000e+03 
602.752  1.95100000e+03 
602.716  1.95200000e+03 
602.680  1.99500000e+03 
602.645  1.93200000e+03 
602.609  1.93800000e+03 
602.573  1.92600000e+03 
602.537  1.94800000e+03 
602.501  1.96300000e+03 
602.465  1.97500000e+03 
602.429  1.90300000e+03 
602.393  1.99500000e+03 
602.357  1.95600000e+03 
602.321  2.02500000e+03 
602.285  1.95900000e+03 
602.249  2.01700000e+03 
602.213  1.90600000e+03 
602.177  1.96900000e+03 
602.141  1.95700000e+03 
602.105  1.87900000e+03 
602.070  1.84700000e+03 
602.034  1.96700000e+03 
601.998  1.86000000e+03 
601.962  1.93200000e+03 
601.926  1.99500000e+03 
601.890  1.89300000e+03 
601.854  2.01300000e+03 
601.818  1.94000000e+03 
601.782  1.99900000e+03 
601.746  1.91000000e+03 
601.710  1.95500000e+03 
601.674  1.97400000e+03 
601.638  1.85400000e+03 
601.602  1.97800000e+03 
601.566  1.92600000e+03 
601.530  1.96700000e+03 
601.495  1.95800000e+03 
601.459  1.93800000e+03 
601.423  1.94000000e+03 
601.387  2.01800000e+03 
601.351  1.92900000e+03 
601.315  1.99600000e+03 
601.279  1.97000000e+03 
601.243  2.02500000e+03 
601.207  1.94400000e+03 
601.171  1.94900000e+03 
601.135  1.95300000e+03 
601.099  1.89500000e+03 
601.063  1.95700000e+03 
601.027  1.94500000e+03 
600.991  1.94700000e+03 
600.955  1.95600000e+03 
600.920  1.94900000e+03 
600.884  1.95400000e+03 
600.848  1.97900000e+03 
600.812  1.98900000e+03 
600.776  1.95900000e+03 
600.740  1.91900000e+03 
600.704  1.90800000e+03 
600.668  1.96100000e+03 
600.632  2.01400000e+03 
600.596  1.97600000e+03 
600.560  1.98000000e+03 
600.524  2.00800000e+03 
600.488  2.05100000e+03 
600.452  1.91700000e+03 
600.416  2.02100000e+03 
600.380  1.95000000e+03 
600.345  2.00300000e+03 
600.309  1.97500000e+03 
600.273  2.03800000e+03 
600.237  1.98000000e+03 
600.201  1.96600000e+03 
600.165  1.97100000e+03 
600.129  2.04000000e+03 
600.093  2.00700000e+03 
600.057  1.93300000e+03 
600.021  1.94500000e+03 
599.985  2.00800000e+03 
599.949  1.92500000e+03 
599.913  1.86500000e+03 
599.877  1.93500000e+03 
599.841  1.98700000e+03 
599.805  1.91500000e+03 
599.770  1.99300000e+03 
599.734  1.94800000e+03 
599.698  2.02300000e+03 
599.662  1.98000000e+03 
599.626  2.06400000e+03 
599.590  1.92000000e+03 
599.554  1.99700000e+03 
599.518  1.96100000e+03 
599.482  1.98800000e+03 
599.446  1.98300000e+03 
599.410  1.99100000e+03 
599.374  1.91300000e+03 
599.338  1.98500000e+03 
599.302  2.00600000e+03 
599.266  1.98700000e+03 
599.230  1.94500000e+03 
599.195  1.95400000e+03 
599.159  1.89900000e+03 
599.123  1.97300000e+03 
599.087  2.00300000e+03 
599.051  1.95800000e+03 
599.015  1.94000000e+03 
598.979  1.97700000e+03 
598.943  1.89800000e+03 
598.907  1.94400000e+03 
598.871  1.95500000e+03 
598.835  1.97900000e+03 
598.799  2.08900000e+03 
598.763  1.97300000e+03 
598.727  1.93500000e+03 
598.691  1.96100000e+03 
598.655  2.02400000e+03 
598.620  1.92300000e+03 
598.584  1.99100000e+03 
598.548  2.01200000e+03 
598.512  2.07000000e+03 
598.476  2.00100000e+03 
598.440  1.95100000e+03 
598.404  2.04000000e+03 
598.368  2.04600000e+03 
598.332  1.93800000e+03 
598.296  2.00400000e+03 
598.260  1.91900000e+03 
598.224  1.91500000e+03 
598.188  1.95400000e+03 
598.152  1.97000000e+03 
598.116  1.97700000e+03 
598.080  1.99200000e+03 
598.045  1.98000000e+03 
598.009  1.93700000e+03 
597.973  1.95700000e+03 
597.937  1.93200000e+03 
597.901  1.99200000e+03 
597.865  1.95800000e+03 
597.829  1.94200000e+03 
597.793  1.95200000e+03 
597.757  1.91800000e+03 
597.721  1.96200000e+03 
597.685  1.97200000e+03 
597.649  1.95100000e+03 
597.613  1.96400000e+03 
597.577  2.04400000e+03 
597.541  2.00800000e+03 
597.505  1.95000000e+03 
597.470  1.93000000e+03 
597.434  1.97100000e+03 
597.398  1.96200000e+03 
597.362  1.98700000e+03 
597.326  2.02700000e+03 
597.290  1.97700000e+03 
597.254  2.03600000e+03 
597.218  2.00300000e+03 
597.182  2.07100000e+03 
597.146  2.04600000e+03 
597.110  1.98300000e+03 
597.074  1.96800000e+03 
597.038  1.99900000e+03 
597.002  1.89600000e+03 
596.966  2.03400000e+03 
596.930  1.97900000e+03 
596.895  1.93400000e+03 
596.859  1.93000000e+03 
596.823  2.00900000e+03 
596.787  1.93100000e+03 
596.751  1.98900000e+03 
596.715  2.00200000e+03 
596.679  1.98100000e+03 
596.643  1.92000000e+03 
596.607  1.96500000e+03 
596.571  1.98400000e+03 
596.535  1.96300000e+03 
596.499  1.96100000e+03 
596.463  1.97100000e+03 
596.427  2.04500000e+03 
596.391  2.06000000e+03 
596.355  1.98900000e+03 
596.320  1.93800000e+03 
596.284  2.09700000e+03 
596.248  1.95700000e+03 
596.212  2.03300000e+03 
596.176  2.01800000e+03 
596.140  2.02400000e+03 
596.104  1.98700000e+03 
596.068  2.02000000e+03 
596.032  1.99100000e+03 
595.996  1.95700000e+03 
595.960  1.89700000e+03 
595.924  1.97500000e+03 
595.888  1.94600000e+03 
595.852  2.01800000e+03 
595.816  2.00600000e+03 
595.780  1.96400000e+03 
595.745  1.95400000e+03 
595.709  1.99700000e+03 
595.673  1.95500000e+03 
595.637  1.94600000e+03 
595.601  1.95900000e+03 
595.565  2.02000000e+03 
595.529  1.91600000e+03 
595.493  1.99800000e+03 
595.457  1.99900000e+03 
595.421  1.99100000e+03 
595.385  1.91800000e+03 
595.349  1.96700000e+03 
595.313  1.97300000e+03 
595.277  1.94200000e+03 
595.241  2.00300000e+03 
595.205  1.96900000e+03 
595.170  2.01600000e+03 
595.134  1.93100000e+03 
595.098  1.97200000e+03 
595.062  1.97300000e+03 
595.026  1.90700000e+03 
594.990  1.97700000e+03 
594.954  2.02500000e+03 
594.918  2.00100000e+03 
594.882  1.86000000e+03 
594.846  2.01200000e+03 
594.810  1.93200000e+03 
594.774  1.99800000e+03 
594.738  1.98800000e+03 
594.702  1.98100000e+03 
594.666  1.96800000e+03 
594.630  1.98800000e+03 
594.595  2.00100000e+03 
594.559  1.99000000e+03 
594.523  1.95200000e+03 
594.487  1.96600000e+03 
594.451  1.93500000e+03 
594.415  2.01800000e+03 
594.379  2.01900000e+03 
594.343  1.95300000e+03 
594.307  2.02600000e+03 
594.271  1.90400000e+03 
594.235  1.96500000e+03 
594.199  1.92100000e+03 
594.163  1.96500000e+03 
594.127  1.93400000e+03 
594.091  2.03100000e+03 
594.055  1.93200000e+03 
594.020  1.95400000e+03 
593.984  1.98800000e+03 
593.948  2.05800000e+03 
593.912  2.00000000e+03 
593.876  1.94700000e+03 
593.840  1.90500000e+03 
593.804  2.08300000e+03 
593.768  2.02000000e+03 
593.732  1.93100000e+03 
593.696  1.94900000e+03 
593.660  1.97700000e+03 
593.624  1.93500000e+03 
593.588  1.92100000e+03 
593.552  1.92900000e+03 
593.516  1.99800000e+03 
593.480  2.02000000e+03 
593.445  2.00300000e+03 
593.409  2.06100000e+03 
593.373  1.99900000e+03 
593.337  1.97200000e+03 
593.301  2.01400000e+03 
593.265  1.88300000e+03 
593.229  1.92400000e+03 
593.193  1.97900000e+03 
593.157  1.96200000e+03 
593.121  1.93300000e+03 
593.085  2.03500000e+03 
593.049  1.96000000e+03 
593.013  2.00300000e+03 
592.977  1.95600000e+03 
592.941  2.02500000e+03 
592.905  2.02100000e+03 
592.870  1.94000000e+03 
592.834  1.97100000e+03 
592.798  2.00500000e+03 
592.762  1.95100000e+03 
592.726  1.92500000e+03 
592.690  2.03800000e+03 
592.654  1.92800000e+03 
592.618  1.95800000e+03 
592.582  2.01800000e+03 
592.546  1.98100000e+03 
592.510  1.95000000e+03 
592.474  2.01200000e+03 
592.438  1.97100000e+03 
592.402  2.02800000e+03 
592.366  1.95200000e+03 
592.330  1.88600000e+03 
592.295  1.96400000e+03 
592.259  1.94400000e+03 
592.223  1.94300000e+03 
592.187  1.98100000e+03 
592.151  1.90000000e+03 
592.115  2.00000000e+03 
592.079  1.92000000e+03 
592.043  1.96700000e+03 
592.007  1.98900000e+03 
591.971  2.02200000e+03 
591.935  1.92700000e+03 
591.899  2.01000000e+03 
591.863  1.98700000e+03 
591.827  1.94500000e+03 
591.791  1.92200000e+03 
591.755  2.01600000e+03 
591.720  2.12100000e+03 
591.684  1.96400000e+03 
591.648  1.98400000e+03 
591.612  1.95200000e+03 
591.576  1.92500000e+03 
591.540  1.96400000e+03 
591.504  2.00200000e+03 
591.468  1.98000000e+03 
591.432  1.94800000e+03 
591.396  1.88300000e+03 
591.360  1.89900000e+03 
591.324  2.01400000e+03 
591.288  1.93900000e+03 
591.252  1.98600000e+03 
591.216  2.02100000e+03 
591.180  1.96700000e+03 
591.145  1.97900000e+03 
591.109  1.94200000e+03 
591.073  2.00000000e+03 
591.037  2.00700000e+03 
591.001  1.96600000e+03 
590.965  1.94900000e+03 
590.929  1.87800000e+03 
590.893  1.95400000e+03 
590.857  2.01200000e+03 
590.821  1.92100000e+03 
590.785  1.91500000e+03 
590.749  1.94800000e+03 
590.713  1.95000000e+03 
590.677  1.98400000e+03 
590.641  1.96800000e+03 
590.605  1.92400000e+03 
590.570  2.02500000e+03 
590.534  1.88400000e+03 
590.498  1.96400000e+03 
590.462  1.99800000e+03 
590.426  1.94400000e+03 
590.390  1.89900000e+03 
590.354  2.02300000e+03 
590.318  1.97500000e+03 
590.282  2.04100000e+03 
590.246  1.99400000e+03 
590.210  1.97900000e+03 
590.174  2.04100000e+03 
590.138  1.96000000e+03 
590.102  2.04600000e+03 
590.066  2.03500000e+03 
590.030  1.96700000e+03 
589.995  1.96100000e+03 
589.959  1.98400000e+03 
589.923  1.87800000e+03 
589.887  2.08900000e+03 
589.851  1.99000000e+03 
589.815  1.91700000e+03 
589.779  2.02100000e+03 
589.743  1.92800000e+03 
589.707  1.99200000e+03 
589.671  1.96900000e+03 
589.635  1.93100000e+03 
589.599  1.92100000e+03 
589.563  1.96400000e+03 
589.527  2.00300000e+03 
589.491  1.98400000e+03 
589.455  1.87700000e+03 
589.420  1.90100000e+03 
589.384  1.96100000e+03 
589.348  1.91000000e+03 
589.312  1.96600000e+03 
589.276  2.02600000e+03 
589.240  1.98500000e+03 
589.204  2.00300000e+03 
589.168  2.02400000e+03 
589.132  1.98200000e+03 
589.096  1.95800000e+03 
589.060  1.94000000e+03 
589.024  2.01200000e+03 
588.988  1.98600000e+03 
588.952  2.02400000e+03 
588.916  1.95200000e+03 
588.880  1.96700000e+03 
588.845  1.92200000e+03 
588.809  1.95300000e+03 
588.773  2.04200000e+03 
588.737  2.05000000e+03 
588.701  2.01400000e+03 
588.665  1.96500000e+03 
588.629  1.94000000e+03 
588.593  1.95700000e+03 
588.557  1.95300000e+03 
588.521  1.92800000e+03 
588.485  1.83300000e+03 
588.449  1.91600000e+03 
588.413  1.95600000e+03 
588.377  1.95200000e+03 
588.341  1.90600000e+03 
588.305  1.96300000e+03 
588.270  1.98100000e+03 
588.234  1.96600000e+03 
588.198  1.88300000e+03 
588.162  2.01100000e+03 
588.126  1.94200000e+03 
588.090  1.91800000e+03 
588.054  1.98200000e+03 
588.018  1.99200000e+03 
587.982  1.93800000e+03 
587.946  1.91700000e+03 
587.910  1.89700000e+03 
587.874  1.95000000e+03 
587.838  1.97100000e+03 
587.802  2.03000000e+03 
587.766  1.96800000e+03 
587.730  1.88300000e+03 
587.695  1.91400000e+03 
587.659  1.89400000e+03 
587.623  2.00500000e+03 
587.587  1.92000000e+03 
587.551  1.92000000e+03 
587.515  1.92700000e+03 
587.479  1.94800000e+03 
587.443  1.92300000e+03 
587.407  1.97600000e+03 
587.371  2.00000000e+03 
587.335  2.04100000e+03 
587.299  1.97400000e+03 
587.263  1.96600000e+03 
587.227  1.90400000e+03 
587.191  1.92600000e+03 
587.155  2.03900000e+03 
587.120  1.97800000e+03 
587.084  1.93800000e+03 
587.048  1.99400000e+03 
587.012  1.91900000e+03 
586.976  1.98900000e+03 
586.940  1.99100000e+03 
586.904  1.91600000e+03 
586.868  2.00300000e+03 
586.832  1.88900000e+03 
586.796  1.94400000e+03 
586.760  1.92400000e+03 
586.724  1.92100000e+03 
586.688  1.96100000e+03 
586.652  1.89800000e+03 
586.616  1.96600000e+03 
586.580  1.89300000e+03 
586.545  1.87000000e+03 
586.509  1.93700000e+03 
586.473  2.01700000e+03 
586.437  1.97400000e+03 
586.401  1.99600000e+03 
586.365  1.95600000e+03 
586.329  2.00800000e+03 
586.293  1.98800000e+03 
586.257  2.00000000e+03 
586.221  1.91800000e+03 
586.185  1.91800000e+03 
586.149  1.94600000e+03 
586.113  1.95600000e+03 
586.077  1.88600000e+03 
586.041  1.95600000e+03 
586.005  1.99300000e+03 
585.970  1.96200000e+03 
585.934  1.95100000e+03 
585.898  1.99000000e+03 
585.862  1.99000000e+03 
585.826  2.03300000e+03 
585.790  1.99500000e+03 
585.754  2.05300000e+03 
585.718  1.98800000e+03 
585.682  2.05100000e+03 
585.646  1.97000000e+03 
585.610  1.99100000e+03 
585.574  1.98400000e+03 
585.538  1.96300000e+03 
585.502  2.02200000e+03 
585.466  1.94100000e+03 
585.430  1.94000000e+03 
585.395  1.99500000e+03 
585.359  1.98700000e+03 
585.323  1.96900000e+03 
585.287  1.87900000e+03 
585.251  1.97700000e+03 
585.215  2.00500000e+03 
585.179  1.98300000e+03 
585.143  1.98100000e+03 
585.107  1.94300000e+03 
585.071  1.97000000e+03 
585.035  1.96000000e+03 
584.999  1.98000000e+03 
584.963  1.96800000e+03 
584.927  1.96400000e+03 
584.891  1.92500000e+03 
584.855  1.92000000e+03 
584.820  1.98300000e+03 
584.784  1.97100000e+03 
584.748  1.96100000e+03 
584.712  2.01700000e+03 
584.676  2.00700000e+03 
584.640  1.95200000e+03 
584.604  1.94200000e+03 
584.568  1.97100000e+03 
584.532  1.94200000e+03 
584.496  1.96300000e+03 
584.460  1.97600000e+03 
584.424  1.92100000e+03 
584.388  1.95100000e+03 
584.352  2.02000000e+03 
584.316  1.97400000e+03 
584.280  1.99900000e+03 
584.245  1.93600000e+03 
584.209  1.90800000e+03 
584.173  1.96500000e+03 
584.137  2.03300000e+03 
584.101  1.99000000e+03 
584.065  1.94700000e+03 
584.029  1.89700000e+03 
583.993  1.98100000e+03 
583.957  1.94100000e+03 
583.921  1.92900000e+03 
583.885  1.87900000e+03 
583.849  1.95600000e+03 
583.813  1.95500000e+03 
583.777  2.03100000e+03 
583.741  1.98600000e+03 
583.705  1.94000000e+03 
583.670  2.00300000e+03 
583.634  1.91400000e+03 
583.598  1.94900000e+03 
583.562  2.01000000e+03 
583.526  1.99100000e+03 
583.490  1.98100000e+03 
583.454  1.96100000e+03 
583.418  1.93300000e+03 
583.382  1.92000000e+03 
583.346  2.05500000e+03 
583.310  1.94100000e+03 
583.274  1.92700000e+03 
583.238  1.97100000e+03 
583.202  2.03200000e+03 
583.166  1.91400000e+03 
583.130  2.01100000e+03 
583.095  2.00700000e+03 
583.059  1.91300000e+03 
583.023  1.96500000e+03 
582.987  1.98500000e+03 
582.951  1.97900000e+03 
582.915  1.96000000e+03 
582.879  1.95300000e+03 
582.843  2.03000000e+03 
582.807  1.99600000e+03 
582.771  1.95200000e+03 
582.735  1.96500000e+03 
582.699  1.98400000e+03 
582.663  2.02200000e+03 
582.627  1.97500000e+03 
582.591  1.96800000e+03 
582.555  1.94700000e+03 
582.520  1.91800000e+03 
582.484  1.86300000e+03 
582.448  1.90600000e+03 
582.412  1.96200000e+03 
582.376  1.91700000e+03 
582.340  1.91900000e+03 
582.304  1.97500000e+03 
582.268  1.92700000e+03 
582.232  1.97800000e+03 
582.196  1.89900000e+03 
582.160  1.98400000e+03 
582.124  2.07100000e+03 
582.088  1.98400000e+03 
582.052  1.96100000e+03 
582.016  2.01600000e+03 
581.980  1.95600000e+03 
581.945  1.89900000e+03 
581.909  1.99900000e+03 
581.873  1.97900000e+03 
581.837  1.90000000e+03 
581.801  1.99100000e+03 
581.765  1.97900000e+03 
581.729  2.02300000e+03 
581.693  1.97600000e+03 
581.657  2.01700000e+03 
581.621  1.89700000e+03 
581.585  2.02900000e+03 
581.549  1.96800000e+03 
581.513  2.02300000e+03 
581.477  1.92400000e+03 
581.441  1.88000000e+03 
581.405  1.96400000e+03 
581.370  1.97300000e+03 
581.334  1.92300000e+03 
581.298  1.91900000e+03 
581.262  1.87400000e+03 
581.226  1.93400000e+03 
581.190  1.89000000e+03 
581.154  1.93800000e+03 
581.118  1.97500000e+03 
581.082  1.99300000e+03 
581.046  2.00600000e+03 
581.010  1.95400000e+03 
580.974  1.91800000e+03 
580.938  1.94900000e+03 
580.902  1.96300000e+03 
580.866  1.96600000e+03 
580.830  1.90100000e+03 
580.795  1.95800000e+03 
580.759  2.00500000e+03 
580.723  1.96200000e+03 
580.687  1.96900000e+03 
580.651  1.91200000e+03 
580.615  1.94700000e+03 
580.579  1.96900000e+03 
580.543  1.95500000e+03 
580.507  1.90400000e+03 
580.471  1.96700000e+03 
580.435  2.01800000e+03 
580.399  1.94400000e+03 
580.363  2.03800000e+03 
580.327  1.94000000e+03 
580.291  1.94200000e+03 
580.255  1.97500000e+03 
580.220  1.94100000e+03 
580.184  2.01200000e+03 
580.148  1.92300000e+03 
580.112  1.97600000e+03 
580.076  1.98400000e+03 
580.040  1.94300000e+03 
580.004  1.96800000e+03 
579.968  1.94700000e+03 
579.932  2.04200000e+03 
579.896  1.96900000e+03 
579.860  2.04400000e+03 
579.824  1.97800000e+03 
579.788  1.94800000e+03 
579.752  1.96600000e+03 
579.716  1.98600000e+03 
579.680  1.94000000e+03 
579.645  1.94600000e+03 
579.609  1.98100000e+03 
579.573  1.96700000e+03 
579.537  1.92300000e+03 
579.501  1.93100000e+03 
579.465  1.92000000e+03 
579.429  1.98400000e+03 
579.393  1.96100000e+03 
579.357  1.93600000e+03 
579.321  1.98600000e+03 
579.285  1.94600000e+03 
579.249  1.96700000e+03 
579.213  1.95200000e+03 
579.177  2.04400000e+03 
579.141  1.97600000e+03 
579.105  1.97100000e+03 
579.070  1.98500000e+03 
579.034  1.94700000e+03 
578.998  1.99400000e+03 
578.962  2.00700000e+03 
578.926  1.91400000e+03 
578.890  1.96100000e+03 
578.854  1.98300000e+03 
578.818  1.85800000e+03 
578.782  1.92300000e+03 
578.746  1.99800000e+03 
578.710  1.99900000e+03 
578.674  1.94300000e+03 
578.638  1.92600000e+03 
578.602  1.99800000e+03 
578.566  1.94700000e+03 
578.530  2.00700000e+03 
578.495  1.98400000e+03 
578.459  1.89500000e+03 
578.423  1.87100000e+03 
578.387  1.93300000e+03 
578.351  1.92500000e+03 
578.315  1.93400000e+03 
578.279  1.98300000e+03 
578.243  1.89600000e+03 
578.207  1.99600000e+03 
578.171  1.98700000e+03 
578.135  1.98100000e+03 
578.099  2.00300000e+03 
578.063  2.00600000e+03 
578.027  1.97000000e+03 
577.991  1.87700000e+03 
577.955  2.04400000e+03 
577.920  1.95300000e+03 
577.884  1.94100000e+03 
577.848  1.96000000e+03 
577.812  1.92300000e+03 
577.776  1.91800000e+03 
577.740  2.01500000e+03 
577.704  1.94300000e+03 
577.668  1.92000000e+03 
577.632  2.02900000e+03 
577.596  1.90700000e+03 
577.560  1.95200000e+03 
577.524  1.99800000e+03 
577.488  1.96500000e+03 
577.452  1.98100000e+03 
577.416  1.92500000e+03 
577.380  1.97700000e+03 
577.345  1.94800000e+03 
577.309  1.91900000e+03 
577.273  1.97400000e+03 
577.237  1.95800000e+03 
577.201  1.95800000e+03 
577.165  1.97100000e+03 
577.129  1.99300000e+03 
577.093  1.95600000e+03 
577.057  1.93200000e+03 
577.021  1.95000000e+03 
576.985  1.96300000e+03 
576.949  1.89400000e+03 
576.913  1.99900000e+03 
576.877  1.89500000e+03 
576.841  1.94700000e+03 
576.805  1.96400000e+03 
576.770  1.98900000e+03 
576.734  1.97100000e+03 
576.698  1.89700000e+03 
576.662  1.94700000e+03 
576.626  2.00600000e+03 
576.590  2.02200000e+03 
576.554  1.94500000e+03 
576.518  1.94100000e+03 
576.482  1.97000000e+03 
576.446  1.85400000e+03 
576.410  1.95900000e+03 
576.374  2.04000000e+03 
576.338  1.97400000e+03 
576.302  1.86200000e+03 
576.266  2.01800000e+03 
576.230  1.91700000e+03 
576.195  1.88100000e+03 
576.159  2.02600000e+03 
576.123  1.93200000e+03 
576.087  1.92300000e+03 
576.051  2.04600000e+03 
576.015  2.03600000e+03 
575.979  1.95900000e+03 
575.943  1.94500000e+03 
575.907  1.97100000e+03 
575.871  2.00100000e+03 
575.835  2.00500000e+03 
575.799  1.90600000e+03 
575.763  1.90600000e+03 
575.727  1.92900000e+03 
575.691  1.98200000e+03 
575.655  1.88000000e+03 
575.620  1.91800000e+03 
575.584  1.90200000e+03 
575.548  1.98200000e+03 
575.512  1.97000000e+03 
575.476  1.93400000e+03 
575.440  1.90400000e+03 
575.404  2.00700000e+03 
575.368  2.01300000e+03 
575.332  1.96600000e+03 
575.296  1.96000000e+03 
575.260  1.96000000e+03 
575.224  1.95100000e+03 
575.188  1.99500000e+03 
575.152  1.91200000e+03 
575.116  1.96500000e+03 
575.080  1.99200000e+03 
575.045  2.00800000e+03 
575.009  1.96000000e+03 
574.973  2.01900000e+03 
574.937  2.00200000e+03 
574.901  1.88400000e+03 
574.865  1.89400000e+03 
574.829  1.94000000e+03 
574.793  1.94400000e+03 
574.757  2.01000000e+03 
574.721  1.85800000e+03 
574.685  1.97300000e+03 
574.649  1.90400000e+03 
574.613  2.00600000e+03 
574.577  1.97200000e+03 
574.541  1.95800000e+03 
574.505  1.91600000e+03 
574.470  1.86800000e+03 
574.434  1.99200000e+03 
574.398  1.95100000e+03 
574.362  2.00100000e+03 
574.326  1.92000000e+03 
574.290  2.07000000e+03 
574.254  2.01100000e+03 
574.218  2.03800000e+03 
574.182  1.86200000e+03 
574.146  2.04100000e+03 
574.110  1.97300000e+03 
574.074  1.91400000e+03 
574.038  1.91200000e+03 
574.002  1.99000000e+03 
573.966  1.95700000e+03 
573.930  1.92100000e+03 
573.895  1.98200000e+03 
573.859  1.96400000e+03 
573.823  1.93400000e+03 
573.787  1.93400000e+03 
573.751  1.98800000e+03 
573.715  2.00200000e+03 
573.679  1.99000000e+03 
573.643  1.99500000e+03 
573.607  1.99300000e+03 
573.571  1.98500000e+03 
573.535  1.96700000e+03 
573.499  1.93100000e+03 
573.463  1.95800000e+03 
573.427  1.88400000e+03 
573.391  1.97400000e+03 
573.355  1.94200000e+03 
573.320  1.97600000e+03 
573.284  1.97800000e+03 
573.248  1.95800000e+03 
573.212  2.03100000e+03 
573.176  1.95300000e+03 
573.140  2.02300000e+03 
573.104  1.89200000e+03 
573.068  1.97800000e+03 
573.032  2.05900000e+03 
572.996  1.99500000e+03 
572.960  1.96900000e+03 
572.924  1.92300000e+03 
572.888  1.89600000e+03 
572.852  1.98400000e+03 
572.816  1.94700000e+03 
572.780  2.03200000e+03 
572.745  1.98700000e+03 
572.709  2.00900000e+03 
572.673  2.05000000e+03 
572.637  1.98600000e+03 
572.601  2.00000000e+03 
572.565  1.92200000e+03 
572.529  1.94100000e+03 
572.493  2.03000000e+03 
572.457  1.99900000e+03 
572.421  1.96700000e+03 
572.385  1.98300000e+03 
572.349  2.02700000e+03 
572.313  1.94200000e+03 
572.277  1.95200000e+03 
572.241  1.92100000e+03 
572.205  1.99900000e+03 
572.170  1.99700000e+03 
572.134  1.91800000e+03 
572.098  1.96400000e+03 
572.062  1.91900000e+03 
572.026  1.99100000e+03 
571.990  1.97900000e+03 
571.954  1.95300000e+03 
571.918  1.87600000e+03 
571.882  1.95200000e+03 
571.846  1.98800000e+03 
571.810  1.95300000e+03 
571.774  1.94100000e+03 
571.738  2.02500000e+03 
571.702  2.07600000e+03 
571.666  1.98000000e+03 
571.630  1.90500000e+03 
571.595  2.09000000e+03 
571.559  1.98200000e+03 
571.523  2.02400000e+03 
571.487  1.93200000e+03 
571.451  2.04000000e+03 
571.415  2.01700000e+03 
571.379  1.94600000e+03 
571.343  1.92800000e+03 
571.307  1.92000000e+03 
571.271  1.93100000e+03 
571.235  1.97300000e+03 
571.199  1.93900000e+03 
571.163  1.92900000e+03 
571.127  1.99800000e+03 
571.091  1.92400000e+03 
571.055  2.03500000e+03 
571.020  2.04000000e+03 
570.984  2.00300000e+03 
570.948  2.03200000e+03 
570.912  1.98500000e+03 
570.876  2.01100000e+03 
570.840  1.96600000e+03 
570.804  1.89100000e+03 
570.768  1.99900000e+03 
570.732  1.99900000e+03 
570.696  2.03500000e+03 
570.660  2.00900000e+03 
570.624  2.02900000e+03 
570.588  2.00300000e+03 
570.552  2.02900000e+03 
570.516  2.00000000e+03 
570.480  1.90100000e+03 
570.445  2.01000000e+03 
570.409  2.00300000e+03 
570.373  1.98800000e+03 
570.337  2.08500000e+03 
570.301  1.94300000e+03 
570.265  1.99700000e+03 
570.229  1.98200000e+03 
570.193  1.98900000e+03 
570.157  1.92100000e+03 
570.121  2.05100000e+03 
570.085  2.00200000e+03 
570.049  1.97600000e+03 
570.013  1.96500000e+03 
569.977  2.06900000e+03 
569.941  1.97300000e+03 
569.905  2.00500000e+03 
569.870  2.00700000e+03 
569.834  2.06500000e+03 
569.798  2.06500000e+03 
569.762  2.01800000e+03 
569.726  2.02400000e+03 
569.690  1.96700000e+03 
569.654  1.98200000e+03 
569.618  2.06700000e+03 
569.582  1.95000000e+03 
569.546  1.91300000e+03 
569.510  2.01700000e+03 
569.474  1.94600000e+03 
569.438  1.92200000e+03 
569.402  1.98800000e+03 
569.366  2.04300000e+03 
569.330  1.98600000e+03 
569.295  1.94000000e+03 
569.259  1.94800000e+03 
569.223  1.97300000e+03 
569.187  2.02000000e+03 
569.151  1.95200000e+03 
569.115  2.00200000e+03 
569.079  2.00700000e+03 
569.043  1.96800000e+03 
569.007  1.98500000e+03 
568.971  1.92800000e+03 
568.935  1.94600000e+03 
568.899  2.03500000e+03 
568.863  1.93700000e+03 
568.827  2.04900000e+03 
568.791  1.92500000e+03 
568.755  1.98600000e+03 
568.720  2.06400000e+03 
568.684  2.01500000e+03 
568.648  2.01500000e+03 
568.612  1.94500000e+03 
568.576  1.98700000e+03 
568.540  1.99800000e+03 
568.504  1.96700000e+03 
568.468  1.98500000e+03 
568.432  2.00300000e+03 
568.396  1.99000000e+03 
568.360  2.00500000e+03 
568.324  1.98300000e+03 
568.288  1.95900000e+03 
568.252  1.93400000e+03 
568.216  1.98300000e+03 
568.180  2.00000000e+03 
568.145  1.97200000e+03 
568.109  2.07900000e+03 
568.073  1.97300000e+03 
568.037  2.03700000e+03 
568.001  1.99000000e+03 
567.965  1.99300000e+03 
567.929  1.98600000e+03 
567.893  2.01800000e+03 
567.857  2.01700000e+03 
567.821  2.02000000e+03 
567.785  2.03400000e+03 
567.749  2.05600000e+03 
567.713  1.93600000e+03 
567.677  1.96000000e+03 
567.641  2.00800000e+03 
567.605  1.96800000e+03 
567.570  2.07100000e+03 
567.534  1.98300000e+03 
567.498  2.02500000e+03 
567.462  1.92300000e+03 
567.426  1.97200000e+03 
567.390  2.00500000e+03 
567.354  1.93700000e+03 
567.318  1.99100000e+03 
567.282  2.02700000e+03 
567.246  1.96900000e+03 
567.210  2.03500000e+03 
567.174  2.02900000e+03 
567.138  1.97200000e+03 
567.102  2.11400000e+03 
567.066  1.99100000e+03 
567.030  2.07300000e+03 
566.995  1.97200000e+03 
566.959  1.98400000e+03 
566.923  2.01800000e+03 
566.887  1.99400000e+03 
566.851  2.02400000e+03 
566.815  1.94900000e+03 
566.779  2.00300000e+03 
566.743  2.05300000e+03 
566.707  2.00300000e+03 
566.671  1.92200000e+03 
566.635  2.00300000e+03 
566.599  2.04500000e+03 
566.563  1.97300000e+03 
566.527  1.97500000e+03 
566.491  1.94700000e+03 
566.455  1.97500000e+03 
566.420  2.03300000e+03 
566.384  2.02500000e+03 
566.348  2.03700000e+03 
566.312  1.91900000e+03 
566.276  2.04900000e+03 
566.240  2.03800000e+03 
566.204  2.09200000e+03 
566.168  2.00400000e+03 
566.132  1.95600000e+03 
566.096  1.98200000e+03 
566.060  2.09300000e+03 
566.024  2.02000000e+03 
565.988  1.97700000e+03 
565.952  1.96500000e+03 
565.916  2.01000000e+03 
565.880  2.01900000e+03 
565.845  1.98000000e+03 
565.809  2.02600000e+03 
565.773  1.96700000e+03 
565.737  1.90600000e+03 
565.701  1.95600000e+03 
565.665  1.93200000e+03 
565.629  1.99700000e+03 
565.593  1.99100000e+03 
565.557  1.98800000e+03 
565.521  1.92300000e+03 
565.485  2.00100000e+03 
565.449  1.98400000e+03 
565.413  1.93300000e+03 
565.377  2.06100000e+03 
565.341  2.04900000e+03 
565.305  1.94400000e+03 
565.270  2.00300000e+03 
565.234  1.97000000e+03 
565.198  1.93800000e+03 
565.162  1.97700000e+03 
565.126  1.88300000e+03 
565.090  1.98700000e+03 
565.054  1.95600000e+03 
565.018  2.01500000e+03 
564.982  1.97700000e+03 
564.946  1.94600000e+03 
564.910  1.99800000e+03 
564.874  2.05700000e+03 
564.838  2.04500000e+03 
564.802  1.98700000e+03 
564.766  2.05100000e+03 
564.730  1.99300000e+03 
564.695  1.92400000e+03 
564.659  2.00300000e+03 
564.623  2.00100000e+03 
564.587  2.00100000e+03 
564.551  1.99300000e+03 
564.515  2.00000000e+03 
564.479  1.95500000e+03 
564.443  2.02500000e+03 
564.407  2.05400000e+03 
564.371  2.03500000e+03 
564.335  2.02800000e+03 
564.299  2.04700000e+03 
564.263  1.97300000e+03 
564.227  2.02000000e+03 
564.191  2.01700000e+03 
564.155  2.03000000e+03 
564.120  2.01000000e+03 
564.084  2.01600000e+03 
564.048  1.96000000e+03 
564.012  2.00400000e+03 
563.976  1.95600000e+03 
563.940  1.98300000e+03 
563.904  1.94400000e+03 
563.868  1.95700000e+03 
563.832  1.99700000e+03 
563.796  1.96100000e+03 
563.760  2.01200000e+03 
563.724  1.99300000e+03 
563.688  1.97300000e+03 
563.652  2.00000000e+03 
563.616  1.95900000e+03 
563.580  2.06600000e+03 
563.545  1.97000000e+03 
563.509  1.95200000e+03 
563.473  1.98200000e+03 
563.437  2.03700000e+03 
563.401  1.94700000e+03 
563.365  1.92900000e+03 
563.329  2.04700000e+03 
563.293  1.94200000e+03 
563.257  1.95600000e+03 
563.221  2.00500000e+03 
563.185  1.93200000e+03 
563.149  1.93100000e+03 
563.113  1.92800000e+03 
563.077  1.98800000e+03 
563.041  2.00400000e+03 
563.005  1.97400000e+03 
562.970  1.94800000e+03 
562.934  1.93400000e+03 
562.898  1.95500000e+03 
562.862  1.92400000e+03 
562.826  2.00700000e+03 
562.790  2.03500000e+03 
562.754  1.98800000e+03 
562.718  1.97400000e+03 
562.682  1.90700000e+03 
562.646  1.95300000e+03 
562.610  1.93400000e+03 
562.574  1.95800000e+03 
562.538  1.86200000e+03 
562.502  1.97800000e+03 
562.466  1.90900000e+03 
562.430  1.94900000e+03 
562.395  1.99200000e+03 
562.359  1.99300000e+03 
562.323  1.87700000e+03 
562.287  1.94100000e+03 
562.251  1.97300000e+03 
562.215  2.02100000e+03 
562.179  2.04900000e+03 
562.143  2.02700000e+03 
562.107  1.95400000e+03 
562.071  1.97200000e+03 
562.035  1.88400000e+03 
561.999  1.88300000e+03 
561.963  1.97700000e+03 
561.927  1.97100000e+03 
561.891  1.96700000e+03 
561.855  1.88100000e+03 
561.820  1.89600000e+03 
561.784  2.02400000e+03 
561.748  1.89900000e+03 
561.712  1.94800000e+03 
561.676  1.97600000e+03 
561.640  1.99300000e+03 
561.604  1.96000000e+03 
561.568  2.00700000e+03 
561.532  1.89100000e+03 
561.496  1.97400000e+03 
561.460  1.93300000e+03 
561.424  1.91900000e+03 
561.388  1.97000000e+03 
561.352  1.91600000e+03 
561.316  1.90300000e+03 
561.280  1.98900000e+03 
561.245  1.95100000e+03 
561.209  1.91400000e+03 
561.173  1.99500000e+03 
561.137  2.05100000e+03 
561.101  1.99100000e+03 
561.065  1.94800000e+03 
561.029  1.98800000e+03 
560.993  1.93900000e+03 
560.957  1.94000000e+03 
560.921  1.93300000e+03 
560.885  1.88100000e+03 
560.849  1.97600000e+03 
560.813  2.03800000e+03 
560.777  1.87400000e+03 
560.741  1.96900000e+03 
560.705  1.91700000e+03 
560.670  1.95200000e+03 
560.634  2.03700000e+03 
560.598  1.92800000e+03 
560.562  1.91600000e+03 
560.526  1.85800000e+03 
560.490  1.93400000e+03 
560.454  1.95000000e+03 
560.418  1.95800000e+03 
560.382  1.81300000e+03 
560.346  1.95200000e+03 
560.310  1.96700000e+03 
560.274  1.92900000e+03 
560.238  1.94500000e+03 
560.202  1.96100000e+03 
560.166  1.90600000e+03 
560.130  1.94000000e+03 
560.095  1.87800000e+03 
560.059  1.87300000e+03 
560.023  1.91100000e+03 
559.987  1.96400000e+03 
559.951  1.99000000e+03 
559.915  1.92400000e+03 
559.879  1.99500000e+03 
559.843  1.91000000e+03 
559.807  1.90200000e+03 
559.771  1.93700000e+03 
559.735  1.91600000e+03 
559.699  1.89300000e+03 
559.663  1.94500000e+03 
559.627  1.79100000e+03 
559.591  1.95100000e+03 
559.555  1.93600000e+03 
559.520  1.88400000e+03 
559.484  1.94800000e+03 
559.448  1.90300000e+03 
559.412  1.99400000e+03 
559.376  1.94500000e+03 
559.340  1.93600000e+03 
559.304  1.92900000e+03 
559.268  1.90100000e+03 
559.232  1.92100000e+03 
559.196  1.89800000e+03 
559.160  1.86700000e+03 
559.124  1.95400000e+03 
559.088  1.92500000e+03 
559.052  1.92000000e+03 
559.016  1.88400000e+03 
558.980  1.93300000e+03 
558.945  1.86700000e+03 
558.909  1.95200000e+03 
558.873  2.00300000e+03 
558.837  1.88900000e+03 
558.801  1.82900000e+03 
558.765  1.96900000e+03 
558.729  1.96500000e+03 
558.693  2.03400000e+03 
558.657  1.91200000e+03 
558.621  1.90900000e+03 
558.585  1.84700000e+03 
558.549  1.94900000e+03 
558.513  1.99100000e+03 
558.477  1.93600000e+03 
558.441  1.90000000e+03 
558.405  1.90900000e+03 
558.370  1.94100000e+03 
558.334  2.03300000e+03 
558.298  1.87600000e+03 
558.262  1.90100000e+03 
558.226  1.92900000e+03 
558.190  1.94700000e+03 
558.154  1.88800000e+03 
558.118  1.97200000e+03 
558.082  1.89800000e+03 
558.046  1.89800000e+03 
558.010  1.88000000e+03 

