EXPERIMENT FILE
Version = 2

[ Experiment Parameters ]
Experiment Description= <none> 
Number_of_Regions_in_Experiment= 1 

Original_File_name= C:\alexesca\data\0228BadSweep.xps 
Instrument= HP ESCA West
Date= 02-28-2013
Time=  13:15:32

[ Layer Parameters ]
Layer_Type= XPS

[ Region 1 Parameters ]
Region_Description = 550to800eV                         
BEcenter(eV) = 675.000000
BEwidth(eV) = 250.000000
BEstep(eV) = 0.035937
Dwell_Time(sec) = 1.000000
N_o_scans = 1  
N_o_Channels = 6957  
Scan_mode = 0  (DITHERED)

[ L= 1 R= 1 ]
BEcenter= 675.000 
BEwidth= -249.981
Excitation= 1486.600
Time_p_channel= 256.000 
Size= 6957
799.991  1.43200000e+03 
799.955  1.44900000e+03 
799.919  1.45700000e+03 
799.883  1.49400000e+03 
799.847  1.48300000e+03 
799.811  1.49500000e+03 
799.775  1.52800000e+03 
799.739  1.40600000e+03 
799.703  1.43600000e+03 
799.667  1.49600000e+03 
799.631  1.45100000e+03 
799.595  1.44900000e+03 
799.559  1.43600000e+03 
799.523  1.49800000e+03 
799.488  1.46500000e+03 
799.452  1.44400000e+03 
799.416  1.51500000e+03 
799.380  1.54600000e+03 
799.344  1.47700000e+03 
799.308  1.44800000e+03 
799.272  1.53200000e+03 
799.236  1.48700000e+03 
799.200  1.48600000e+03 
799.164  1.46400000e+03 
799.128  1.49100000e+03 
799.092  1.47900000e+03 
799.056  1.44300000e+03 
799.020  1.45300000e+03 
798.984  1.42800000e+03 
798.948  1.43100000e+03 
798.913  1.47200000e+03 
798.877  1.47800000e+03 
798.841  1.44300000e+03 
798.805  1.47500000e+03 
798.769  1.46000000e+03 
798.733  1.49700000e+03 
798.697  1.44900000e+03 
798.661  1.41100000e+03 
798.625  1.47700000e+03 
798.589  1.42900000e+03 
798.553  1.47600000e+03 
798.517  1.50900000e+03 
798.481  1.50700000e+03 
798.445  1.45200000e+03 
798.409  1.40400000e+03 
798.373  1.43600000e+03 
798.337  1.47700000e+03 
798.302  1.53900000e+03 
798.266  1.42900000e+03 
798.230  1.45600000e+03 
798.194  1.47800000e+03 
798.158  1.40200000e+03 
798.122  1.48700000e+03 
798.086  1.48700000e+03 
798.050  1.44100000e+03 
798.014  1.44500000e+03 
797.978  1.42700000e+03 
797.942  1.45700000e+03 
797.906  1.45000000e+03 
797.870  1.52000000e+03 
797.834  1.46100000e+03 
797.798  1.48500000e+03 
797.763  1.47100000e+03 
797.727  1.48400000e+03 
797.691  1.52500000e+03 
797.655  1.38300000e+03 
797.619  1.40600000e+03 
797.583  1.46700000e+03 
797.547  1.45200000e+03 
797.511  1.50900000e+03 
797.475  1.43900000e+03 
797.439  1.50000000e+03 
797.403  1.49500000e+03 
797.367  1.46900000e+03 
797.331  1.48000000e+03 
797.295  1.48600000e+03 
797.259  1.41400000e+03 
797.223  1.47900000e+03 
797.188  1.46800000e+03 
797.152  1.41800000e+03 
797.116  1.48600000e+03 
797.080  1.50300000e+03 
797.044  1.48900000e+03 
797.008  1.48600000e+03 
796.972  1.52200000e+03 
796.936  1.45700000e+03 
796.900  1.47700000e+03 
796.864  1.50200000e+03 
796.828  1.47600000e+03 
796.792  1.49000000e+03 
796.756  1.46600000e+03 
796.720  1.49600000e+03 
796.684  1.45600000e+03 
796.648  1.44100000e+03 
796.613  1.51100000e+03 
796.577  1.43900000e+03 
796.541  1.53400000e+03 
796.505  1.42900000e+03 
796.469  1.47200000e+03 
796.433  1.44600000e+03 
796.397  1.48900000e+03 
796.361  1.53000000e+03 
796.325  1.50300000e+03 
796.289  1.52200000e+03 
796.253  1.42800000e+03 
796.217  1.45200000e+03 
796.181  1.49700000e+03 
796.145  1.44100000e+03 
796.109  1.48500000e+03 
796.073  1.44100000e+03 
796.038  1.53900000e+03 
796.002  1.52200000e+03 
795.966  1.45000000e+03 
795.930  1.45100000e+03 
795.894  1.46600000e+03 
795.858  1.48200000e+03 
795.822  1.49200000e+03 
795.786  1.48400000e+03 
795.750  1.49900000e+03 
795.714  1.47500000e+03 
795.678  1.47200000e+03 
795.642  1.46000000e+03 
795.606  1.42100000e+03 
795.570  1.43700000e+03 
795.534  1.48100000e+03 
795.498  1.41400000e+03 
795.462  1.49500000e+03 
795.427  1.51200000e+03 
795.391  1.50200000e+03 
795.355  1.44800000e+03 
795.319  1.45300000e+03 
795.283  1.48200000e+03 
795.247  1.46200000e+03 
795.211  1.47600000e+03 
795.175  1.40900000e+03 
795.139  1.52900000e+03 
795.103  1.44300000e+03 
795.067  1.46400000e+03 
795.031  1.46900000e+03 
794.995  1.45200000e+03 
794.959  1.46700000e+03 
794.923  1.48900000e+03 
794.888  1.51700000e+03 
794.852  1.43800000e+03 
794.816  1.42900000e+03 
794.780  1.47600000e+03 
794.744  1.42600000e+03 
794.708  1.54000000e+03 
794.672  1.52700000e+03 
794.636  1.46200000e+03 
794.600  1.44200000e+03 
794.564  1.49000000e+03 
794.528  1.43700000e+03 
794.492  1.47900000e+03 
794.456  1.47400000e+03 
794.420  1.49700000e+03 
794.384  1.42800000e+03 
794.348  1.52100000e+03 
794.312  1.52200000e+03 
794.277  1.49600000e+03 
794.241  1.47500000e+03 
794.205  1.46600000e+03 
794.169  1.51000000e+03 
794.133  1.47500000e+03 
794.097  1.45000000e+03 
794.061  1.50000000e+03 
794.025  1.49700000e+03 
793.989  1.42900000e+03 
793.953  1.45200000e+03 
793.917  1.49500000e+03 
793.881  1.53700000e+03 
793.845  1.46300000e+03 
793.809  1.52300000e+03 
793.773  1.47300000e+03 
793.738  1.48300000e+03 
793.702  1.51300000e+03 
793.666  1.51500000e+03 
793.630  1.51500000e+03 
793.594  1.45400000e+03 
793.558  1.51200000e+03 
793.522  1.49900000e+03 
793.486  1.55300000e+03 
793.450  1.50000000e+03 
793.414  1.43500000e+03 
793.378  1.49600000e+03 
793.342  1.39800000e+03 
793.306  1.51900000e+03 
793.270  1.46100000e+03 
793.234  1.45400000e+03 
793.198  1.50900000e+03 
793.163  1.51500000e+03 
793.127  1.51600000e+03 
793.091  1.51900000e+03 
793.055  1.37300000e+03 
793.019  1.51100000e+03 
792.983  1.46100000e+03 
792.947  1.47400000e+03 
792.911  1.43800000e+03 
792.875  1.49200000e+03 
792.839  1.45000000e+03 
792.803  1.50300000e+03 
792.767  1.40800000e+03 
792.731  1.45500000e+03 
792.695  1.48900000e+03 
792.659  1.60700000e+03 
792.623  1.49300000e+03 
792.587  1.45900000e+03 
792.552  1.53300000e+03 
792.516  1.39700000e+03 
792.480  1.39800000e+03 
792.444  1.48300000e+03 
792.408  1.45300000e+03 
792.372  1.45500000e+03 
792.336  1.49700000e+03 
792.300  1.50100000e+03 
792.264  1.48200000e+03 
792.228  1.47800000e+03 
792.192  1.53100000e+03 
792.156  1.49500000e+03 
792.120  1.50200000e+03 
792.084  1.48800000e+03 
792.048  1.43900000e+03 
792.013  1.37300000e+03 
791.977  1.49600000e+03 
791.941  1.57100000e+03 
791.905  1.43000000e+03 
791.869  1.40900000e+03 
791.833  1.50700000e+03 
791.797  1.43500000e+03 
791.761  1.46600000e+03 
791.725  1.43200000e+03 
791.689  1.47800000e+03 
791.653  1.41000000e+03 
791.617  1.47400000e+03 
791.581  1.45700000e+03 
791.545  1.46500000e+03 
791.509  1.59600000e+03 
791.473  1.47900000e+03 
791.438  1.50100000e+03 
791.402  1.41600000e+03 
791.366  1.47700000e+03 
791.330  1.48000000e+03 
791.294  1.48200000e+03 
791.258  1.50700000e+03 
791.222  1.41600000e+03 
791.186  1.53000000e+03 
791.150  1.50100000e+03 
791.114  1.41800000e+03 
791.078  1.43800000e+03 
791.042  1.50500000e+03 
791.006  1.55800000e+03 
790.970  1.53000000e+03 
790.934  1.49900000e+03 
790.898  1.50100000e+03 
790.863  1.48100000e+03 
790.827  1.46900000e+03 
790.791  1.45300000e+03 
790.755  1.56400000e+03 
790.719  1.44000000e+03 
790.683  1.57000000e+03 
790.647  1.51900000e+03 
790.611  1.47500000e+03 
790.575  1.48800000e+03 
790.539  1.48600000e+03 
790.503  1.56700000e+03 
790.467  1.52700000e+03 
790.431  1.50800000e+03 
790.395  1.45300000e+03 
790.359  1.53500000e+03 
790.323  1.48200000e+03 
790.288  1.49300000e+03 
790.252  1.44500000e+03 
790.216  1.54400000e+03 
790.180  1.51400000e+03 
790.144  1.55000000e+03 
790.108  1.50200000e+03 
790.072  1.39400000e+03 
790.036  1.41800000e+03 
790.000  1.52400000e+03 
789.964  1.49200000e+03 
789.928  1.51800000e+03 
789.892  1.58200000e+03 
789.856  1.53600000e+03 
789.820  1.51800000e+03 
789.784  1.48900000e+03 
789.748  1.45200000e+03 
789.712  1.51700000e+03 
789.677  1.50400000e+03 
789.641  1.46500000e+03 
789.605  1.41700000e+03 
789.569  1.49300000e+03 
789.533  1.51400000e+03 
789.497  1.52400000e+03 
789.461  1.46700000e+03 
789.425  1.45800000e+03 
789.389  1.50900000e+03 
789.353  1.54400000e+03 
789.317  1.56700000e+03 
789.281  1.51700000e+03 
789.245  1.52100000e+03 
789.209  1.52000000e+03 
789.173  1.47600000e+03 
789.138  1.51000000e+03 
789.102  1.49500000e+03 
789.066  1.43100000e+03 
789.030  1.46900000e+03 
788.994  1.41400000e+03 
788.958  1.46500000e+03 
788.922  1.51700000e+03 
788.886  1.45100000e+03 
788.850  1.44000000e+03 
788.814  1.51600000e+03 
788.778  1.48900000e+03 
788.742  1.45800000e+03 
788.706  1.54100000e+03 
788.670  1.54500000e+03 
788.634  1.48600000e+03 
788.598  1.53200000e+03 
788.562  1.46800000e+03 
788.527  1.48400000e+03 
788.491  1.43300000e+03 
788.455  1.53200000e+03 
788.419  1.52100000e+03 
788.383  1.48100000e+03 
788.347  1.54300000e+03 
788.311  1.44200000e+03 
788.275  1.48700000e+03 
788.239  1.45900000e+03 
788.203  1.50300000e+03 
788.167  1.49100000e+03 
788.131  1.50100000e+03 
788.095  1.56900000e+03 
788.059  1.53500000e+03 
788.023  1.51300000e+03 
787.988  1.53100000e+03 
787.952  1.42800000e+03 
787.916  1.45400000e+03 
787.880  1.47900000e+03 
787.844  1.52700000e+03 
787.808  1.43600000e+03 
787.772  1.43300000e+03 
787.736  1.51200000e+03 
787.700  1.53700000e+03 
787.664  1.46100000e+03 
787.628  1.52300000e+03 
787.592  1.45600000e+03 
787.556  1.46700000e+03 
787.520  1.49300000e+03 
787.484  1.52800000e+03 
787.448  1.53800000e+03 
787.413  1.53600000e+03 
787.377  1.43500000e+03 
787.341  1.57100000e+03 
787.305  1.55100000e+03 
787.269  1.50200000e+03 
787.233  1.52600000e+03 
787.197  1.50000000e+03 
787.161  1.51600000e+03 
787.125  1.43200000e+03 
787.089  1.49800000e+03 
787.053  1.53600000e+03 
787.017  1.47600000e+03 
786.981  1.43200000e+03 
786.945  1.50700000e+03 
786.909  1.49900000e+03 
786.873  1.53700000e+03 
786.837  1.53000000e+03 
786.802  1.49700000e+03 
786.766  1.54500000e+03 
786.730  1.51500000e+03 
786.694  1.54600000e+03 
786.658  1.45300000e+03 
786.622  1.49800000e+03 
786.586  1.54500000e+03 
786.550  1.53900000e+03 
786.514  1.56200000e+03 
786.478  1.46500000e+03 
786.442  1.43200000e+03 
786.406  1.56000000e+03 
786.370  1.53600000e+03 
786.334  1.46900000e+03 
786.298  1.47000000e+03 
786.263  1.50200000e+03 
786.227  1.51800000e+03 
786.191  1.51300000e+03 
786.155  1.43100000e+03 
786.119  1.48300000e+03 
786.083  1.42900000e+03 
786.047  1.54800000e+03 
786.011  1.47000000e+03 
785.975  1.53300000e+03 
785.939  1.52500000e+03 
785.903  1.48400000e+03 
785.867  1.51200000e+03 
785.831  1.44400000e+03 
785.795  1.53200000e+03 
785.759  1.51100000e+03 
785.723  1.52500000e+03 
785.688  1.50500000e+03 
785.652  1.45000000e+03 
785.616  1.53900000e+03 
785.580  1.42800000e+03 
785.544  1.48900000e+03 
785.508  1.56800000e+03 
785.472  1.47500000e+03 
785.436  1.49100000e+03 
785.400  1.50800000e+03 
785.364  1.42200000e+03 
785.328  1.47000000e+03 
785.292  1.46900000e+03 
785.256  1.44500000e+03 
785.220  1.52800000e+03 
785.184  1.51100000e+03 
785.148  1.56100000e+03 
785.113  1.50300000e+03 
785.077  1.43100000e+03 
785.041  1.52100000e+03 
785.005  1.52000000e+03 
784.969  1.49900000e+03 
784.933  1.50000000e+03 
784.897  1.50700000e+03 
784.861  1.54200000e+03 
784.825  1.42600000e+03 
784.789  1.49000000e+03 
784.753  1.45000000e+03 
784.717  1.55500000e+03 
784.681  1.51200000e+03 
784.645  1.54600000e+03 
784.609  1.48900000e+03 
784.573  1.51400000e+03 
784.538  1.53700000e+03 
784.502  1.53400000e+03 
784.466  1.48000000e+03 
784.430  1.50400000e+03 
784.394  1.46800000e+03 
784.358  1.47000000e+03 
784.322  1.52400000e+03 
784.286  1.49900000e+03 
784.250  1.48100000e+03 
784.214  1.53700000e+03 
784.178  1.54000000e+03 
784.142  1.58700000e+03 
784.106  1.50700000e+03 
784.070  1.50900000e+03 
784.034  1.52200000e+03 
783.998  1.45400000e+03 
783.962  1.48900000e+03 
783.927  1.53200000e+03 
783.891  1.50200000e+03 
783.855  1.47200000e+03 
783.819  1.41800000e+03 
783.783  1.56400000e+03 
783.747  1.57800000e+03 
783.711  1.60600000e+03 
783.675  1.49500000e+03 
783.639  1.52800000e+03 
783.603  1.57200000e+03 
783.567  1.46600000e+03 
783.531  1.56300000e+03 
783.495  1.53800000e+03 
783.459  1.55600000e+03 
783.423  1.49500000e+03 
783.388  1.53400000e+03 
783.352  1.51100000e+03 
783.316  1.47700000e+03 
783.280  1.51400000e+03 
783.244  1.47300000e+03 
783.208  1.46800000e+03 
783.172  1.47200000e+03 
783.136  1.50500000e+03 
783.100  1.55500000e+03 
783.064  1.45900000e+03 
783.028  1.52900000e+03 
782.992  1.54000000e+03 
782.956  1.47700000e+03 
782.920  1.58100000e+03 
782.884  1.47900000e+03 
782.848  1.49000000e+03 
782.812  1.48500000e+03 
782.777  1.52100000e+03 
782.741  1.49500000e+03 
782.705  1.52300000e+03 
782.669  1.49400000e+03 
782.633  1.50200000e+03 
782.597  1.56200000e+03 
782.561  1.49300000e+03 
782.525  1.54100000e+03 
782.489  1.47500000e+03 
782.453  1.53000000e+03 
782.417  1.55400000e+03 
782.381  1.59400000e+03 
782.345  1.50600000e+03 
782.309  1.50600000e+03 
782.273  1.48600000e+03 
782.238  1.47300000e+03 
782.202  1.55200000e+03 
782.166  1.55000000e+03 
782.130  1.55300000e+03 
782.094  1.54600000e+03 
782.058  1.48200000e+03 
782.022  1.53800000e+03 
781.986  1.55800000e+03 
781.950  1.47200000e+03 
781.914  1.55800000e+03 
781.878  1.62100000e+03 
781.842  1.54300000e+03 
781.806  1.54900000e+03 
781.770  1.44300000e+03 
781.734  1.56000000e+03 
781.698  1.53300000e+03 
781.663  1.51400000e+03 
781.627  1.59000000e+03 
781.591  1.51900000e+03 
781.555  1.49100000e+03 
781.519  1.52500000e+03 
781.483  1.47600000e+03 
781.447  1.52700000e+03 
781.411  1.45800000e+03 
781.375  1.55500000e+03 
781.339  1.54200000e+03 
781.303  1.52800000e+03 
781.267  1.56500000e+03 
781.231  1.63600000e+03 
781.195  1.51700000e+03 
781.159  1.52100000e+03 
781.123  1.58500000e+03 
781.087  1.52100000e+03 
781.052  1.48700000e+03 
781.016  1.52500000e+03 
780.980  1.56000000e+03 
780.944  1.52400000e+03 
780.908  1.51800000e+03 
780.872  1.53600000e+03 
780.836  1.49700000e+03 
780.800  1.50800000e+03 
780.764  1.51100000e+03 
780.728  1.60400000e+03 
780.692  1.47400000e+03 
780.656  1.50000000e+03 
780.620  1.53300000e+03 
780.584  1.54500000e+03 
780.548  1.56500000e+03 
780.513  1.45300000e+03 
780.477  1.51800000e+03 
780.441  1.56900000e+03 
780.405  1.52700000e+03 
780.369  1.44900000e+03 
780.333  1.44500000e+03 
780.297  1.39900000e+03 
780.261  1.55500000e+03 
780.225  1.50600000e+03 
780.189  1.56300000e+03 
780.153  1.53200000e+03 
780.117  1.50400000e+03 
780.081  1.57800000e+03 
780.045  1.56800000e+03 
780.009  1.49100000e+03 
779.973  1.58600000e+03 
779.938  1.52100000e+03 
779.902  1.41200000e+03 
779.866  1.47800000e+03 
779.830  1.57200000e+03 
779.794  1.49700000e+03 
779.758  1.53700000e+03 
779.722  1.50100000e+03 
779.686  1.54700000e+03 
779.650  1.55400000e+03 
779.614  1.50800000e+03 
779.578  1.58200000e+03 
779.542  1.48000000e+03 
779.506  1.52000000e+03 
779.470  1.56800000e+03 
779.434  1.50900000e+03 
779.398  1.48500000e+03 
779.363  1.61700000e+03 
779.327  1.53400000e+03 
779.291  1.47100000e+03 
779.255  1.52000000e+03 
779.219  1.54300000e+03 
779.183  1.56800000e+03 
779.147  1.62700000e+03 
779.111  1.51500000e+03 
779.075  1.54100000e+03 
779.039  1.58600000e+03 
779.003  1.48800000e+03 
778.967  1.51200000e+03 
778.931  1.51600000e+03 
778.895  1.47400000e+03 
778.859  1.50800000e+03 
778.823  1.51800000e+03 
778.788  1.51100000e+03 
778.752  1.51900000e+03 
778.716  1.57500000e+03 
778.680  1.57800000e+03 
778.644  1.50800000e+03 
778.608  1.56000000e+03 
778.572  1.54600000e+03 
778.536  1.49400000e+03 
778.500  1.50600000e+03 
778.464  1.55100000e+03 
778.428  1.54500000e+03 
778.392  1.52900000e+03 
778.356  1.53000000e+03 
778.320  1.56700000e+03 
778.284  1.47400000e+03 
778.248  1.50200000e+03 
778.212  1.54100000e+03 
778.177  1.57900000e+03 
778.141  1.49500000e+03 
778.105  1.56800000e+03 
778.069  1.49800000e+03 
778.033  1.50000000e+03 
777.997  1.56400000e+03 
777.961  1.54600000e+03 
777.925  1.56300000e+03 
777.889  1.48700000e+03 
777.853  1.51400000e+03 
777.817  1.55300000e+03 
777.781  1.56200000e+03 
777.745  1.60300000e+03 
777.709  1.56400000e+03 
777.673  1.58800000e+03 
777.638  1.55800000e+03 
777.602  1.53900000e+03 
777.566  1.54700000e+03 
777.530  1.54900000e+03 
777.494  1.54600000e+03 
777.458  1.50600000e+03 
777.422  1.56200000e+03 
777.386  1.51600000e+03 
777.350  1.50000000e+03 
777.314  1.50200000e+03 
777.278  1.55500000e+03 
777.242  1.53100000e+03 
777.206  1.51400000e+03 
777.170  1.46200000e+03 
777.134  1.54700000e+03 
777.098  1.52000000e+03 
777.062  1.54800000e+03 
777.027  1.51400000e+03 
776.991  1.52800000e+03 
776.955  1.55000000e+03 
776.919  1.52000000e+03 
776.883  1.59200000e+03 
776.847  1.50100000e+03 
776.811  1.50300000e+03 
776.775  1.50900000e+03 
776.739  1.51800000e+03 
776.703  1.52300000e+03 
776.667  1.54200000e+03 
776.631  1.47500000e+03 
776.595  1.47900000e+03 
776.559  1.57900000e+03 
776.523  1.58700000e+03 
776.488  1.55000000e+03 
776.452  1.52200000e+03 
776.416  1.59400000e+03 
776.380  1.52100000e+03 
776.344  1.59600000e+03 
776.308  1.54300000e+03 
776.272  1.50700000e+03 
776.236  1.51500000e+03 
776.200  1.59700000e+03 
776.164  1.55200000e+03 
776.128  1.51900000e+03 
776.092  1.56900000e+03 
776.056  1.53000000e+03 
776.020  1.50200000e+03 
775.984  1.49000000e+03 
775.948  1.49900000e+03 
775.913  1.50000000e+03 
775.877  1.56500000e+03 
775.841  1.52700000e+03 
775.805  1.53700000e+03 
775.769  1.62300000e+03 
775.733  1.49300000e+03 
775.697  1.51200000e+03 
775.661  1.52400000e+03 
775.625  1.55800000e+03 
775.589  1.56900000e+03 
775.553  1.58600000e+03 
775.517  1.54800000e+03 
775.481  1.51600000e+03 
775.445  1.50900000e+03 
775.409  1.54700000e+03 
775.373  1.50300000e+03 
775.337  1.49800000e+03 
775.302  1.54600000e+03 
775.266  1.50500000e+03 
775.230  1.47400000e+03 
775.194  1.45000000e+03 
775.158  1.61100000e+03 
775.122  1.50500000e+03 
775.086  1.56300000e+03 
775.050  1.55700000e+03 
775.014  1.53300000e+03 
774.978  1.52700000e+03 
774.942  1.58500000e+03 
774.906  1.51700000e+03 
774.870  1.50400000e+03 
774.834  1.55500000e+03 
774.798  1.51000000e+03 
774.763  1.53900000e+03 
774.727  1.56500000e+03 
774.691  1.56600000e+03 
774.655  1.53900000e+03 
774.619  1.52300000e+03 
774.583  1.54100000e+03 
774.547  1.55900000e+03 
774.511  1.55600000e+03 
774.475  1.56900000e+03 
774.439  1.57500000e+03 
774.403  1.58200000e+03 
774.367  1.65200000e+03 
774.331  1.52100000e+03 
774.295  1.60800000e+03 
774.259  1.54600000e+03 
774.223  1.51600000e+03 
774.188  1.54100000e+03 
774.152  1.47200000e+03 
774.116  1.55900000e+03 
774.080  1.48900000e+03 
774.044  1.58400000e+03 
774.008  1.56700000e+03 
773.972  1.59100000e+03 
773.936  1.55400000e+03 
773.900  1.51800000e+03 
773.864  1.53400000e+03 
773.828  1.53300000e+03 
773.792  1.57600000e+03 
773.756  1.61300000e+03 
773.720  1.55400000e+03 
773.684  1.54800000e+03 
773.648  1.56300000e+03 
773.613  1.53900000e+03 
773.577  1.62700000e+03 
773.541  1.44200000e+03 
773.505  1.50200000e+03 
773.469  1.52600000e+03 
773.433  1.56600000e+03 
773.397  1.61600000e+03 
773.361  1.53100000e+03 
773.325  1.59600000e+03 
773.289  1.55200000e+03 
773.253  1.53400000e+03 
773.217  1.53300000e+03 
773.181  1.55000000e+03 
773.145  1.58800000e+03 
773.109  1.55700000e+03 
773.073  1.53800000e+03 
773.038  1.51900000e+03 
773.002  1.48700000e+03 
772.966  1.51000000e+03 
772.930  1.60300000e+03 
772.894  1.50600000e+03 
772.858  1.49700000e+03 
772.822  1.51900000e+03 
772.786  1.53100000e+03 
772.750  1.51800000e+03 
772.714  1.55300000e+03 
772.678  1.54900000e+03 
772.642  1.60000000e+03 
772.606  1.53600000e+03 
772.570  1.57500000e+03 
772.534  1.54200000e+03 
772.498  1.55100000e+03 
772.462  1.53400000e+03 
772.427  1.54500000e+03 
772.391  1.58300000e+03 
772.355  1.56400000e+03 
772.319  1.57000000e+03 
772.283  1.49600000e+03 
772.247  1.61500000e+03 
772.211  1.55100000e+03 
772.175  1.55000000e+03 
772.139  1.56400000e+03 
772.103  1.48900000e+03 
772.067  1.60100000e+03 
772.031  1.51700000e+03 
771.995  1.53200000e+03 
771.959  1.56500000e+03 
771.923  1.52000000e+03 
771.888  1.55000000e+03 
771.852  1.53000000e+03 
771.816  1.48400000e+03 
771.780  1.50800000e+03 
771.744  1.57900000e+03 
771.708  1.54600000e+03 
771.672  1.48500000e+03 
771.636  1.48400000e+03 
771.600  1.58800000e+03 
771.564  1.53700000e+03 
771.528  1.53500000e+03 
771.492  1.59400000e+03 
771.456  1.48400000e+03 
771.420  1.61800000e+03 
771.384  1.57200000e+03 
771.348  1.55900000e+03 
771.312  1.55200000e+03 
771.277  1.54500000e+03 
771.241  1.54600000e+03 
771.205  1.56600000e+03 
771.169  1.56300000e+03 
771.133  1.58900000e+03 
771.097  1.60200000e+03 
771.061  1.50600000e+03 
771.025  1.58700000e+03 
770.989  1.53700000e+03 
770.953  1.57100000e+03 
770.917  1.56400000e+03 
770.881  1.53000000e+03 
770.845  1.49600000e+03 
770.809  1.54600000e+03 
770.773  1.57800000e+03 
770.738  1.53100000e+03 
770.702  1.54100000e+03 
770.666  1.56400000e+03 
770.630  1.54300000e+03 
770.594  1.55500000e+03 
770.558  1.55700000e+03 
770.522  1.48900000e+03 
770.486  1.61400000e+03 
770.450  1.54500000e+03 
770.414  1.47900000e+03 
770.378  1.54600000e+03 
770.342  1.51100000e+03 
770.306  1.55800000e+03 
770.270  1.56700000e+03 
770.234  1.56300000e+03 
770.198  1.53700000e+03 
770.163  1.56100000e+03 
770.127  1.54600000e+03 
770.091  1.57400000e+03 
770.055  1.53100000e+03 
770.019  1.55400000e+03 
769.983  1.58700000e+03 
769.947  1.58200000e+03 
769.911  1.49500000e+03 
769.875  1.57100000e+03 
769.839  1.54400000e+03 
769.803  1.55900000e+03 
769.767  1.45800000e+03 
769.731  1.54800000e+03 
769.695  1.54500000e+03 
769.659  1.56100000e+03 
769.623  1.57200000e+03 
769.587  1.55700000e+03 
769.552  1.58400000e+03 
769.516  1.54500000e+03 
769.480  1.60000000e+03 
769.444  1.51200000e+03 
769.408  1.60000000e+03 
769.372  1.54600000e+03 
769.336  1.53100000e+03 
769.300  1.56700000e+03 
769.264  1.57000000e+03 
769.228  1.48800000e+03 
769.192  1.56400000e+03 
769.156  1.55500000e+03 
769.120  1.53500000e+03 
769.084  1.53600000e+03 
769.048  1.55500000e+03 
769.013  1.61600000e+03 
768.977  1.51400000e+03 
768.941  1.57500000e+03 
768.905  1.52100000e+03 
768.869  1.59300000e+03 
768.833  1.52900000e+03 
768.797  1.61800000e+03 
768.761  1.55900000e+03 
768.725  1.53400000e+03 
768.689  1.59100000e+03 
768.653  1.62300000e+03 
768.617  1.57800000e+03 
768.581  1.58900000e+03 
768.545  1.56600000e+03 
768.509  1.54500000e+03 
768.473  1.60100000e+03 
768.438  1.61600000e+03 
768.402  1.63300000e+03 
768.366  1.56900000e+03 
768.330  1.55300000e+03 
768.294  1.59200000e+03 
768.258  1.54000000e+03 
768.222  1.57400000e+03 
768.186  1.51100000e+03 
768.150  1.55900000e+03 
768.114  1.60000000e+03 
768.078  1.56400000e+03 
768.042  1.56000000e+03 
768.006  1.47600000e+03 
767.970  1.52600000e+03 
767.934  1.55200000e+03 
767.898  1.48200000e+03 
767.863  1.60600000e+03 
767.827  1.53800000e+03 
767.791  1.56100000e+03 
767.755  1.60400000e+03 
767.719  1.59900000e+03 
767.683  1.50200000e+03 
767.647  1.58100000e+03 
767.611  1.52900000e+03 
767.575  1.54600000e+03 
767.539  1.58100000e+03 
767.503  1.54800000e+03 
767.467  1.56500000e+03 
767.431  1.55200000e+03 
767.395  1.56800000e+03 
767.359  1.58500000e+03 
767.323  1.60900000e+03 
767.288  1.57600000e+03 
767.252  1.59000000e+03 
767.216  1.57000000e+03 
767.180  1.62200000e+03 
767.144  1.56100000e+03 
767.108  1.49700000e+03 
767.072  1.60400000e+03 
767.036  1.65500000e+03 
767.000  1.57900000e+03 
766.964  1.55300000e+03 
766.928  1.57900000e+03 
766.892  1.58000000e+03 
766.856  1.64900000e+03 
766.820  1.56900000e+03 
766.784  1.56800000e+03 
766.748  1.55900000e+03 
766.712  1.56800000e+03 
766.677  1.59000000e+03 
766.641  1.49500000e+03 
766.605  1.58300000e+03 
766.569  1.64800000e+03 
766.533  1.62000000e+03 
766.497  1.45500000e+03 
766.461  1.58700000e+03 
766.425  1.54500000e+03 
766.389  1.62700000e+03 
766.353  1.60700000e+03 
766.317  1.51900000e+03 
766.281  1.59100000e+03 
766.245  1.57100000e+03 
766.209  1.61500000e+03 
766.173  1.51900000e+03 
766.138  1.54600000e+03 
766.102  1.54900000e+03 
766.066  1.58100000e+03 
766.030  1.58700000e+03 
765.994  1.59600000e+03 
765.958  1.58900000e+03 
765.922  1.57600000e+03 
765.886  1.57000000e+03 
765.850  1.55100000e+03 
765.814  1.58300000e+03 
765.778  1.65000000e+03 
765.742  1.59100000e+03 
765.706  1.65500000e+03 
765.670  1.54300000e+03 
765.634  1.54000000e+03 
765.598  1.50300000e+03 
765.562  1.55800000e+03 
765.527  1.57100000e+03 
765.491  1.58800000e+03 
765.455  1.58300000e+03 
765.419  1.61900000e+03 
765.383  1.55400000e+03 
765.347  1.63600000e+03 
765.311  1.57600000e+03 
765.275  1.50200000e+03 
765.239  1.47300000e+03 
765.203  1.63900000e+03 
765.167  1.59500000e+03 
765.131  1.62100000e+03 
765.095  1.58400000e+03 
765.059  1.64400000e+03 
765.023  1.60200000e+03 
764.988  1.56500000e+03 
764.952  1.68600000e+03 
764.916  1.54700000e+03 
764.880  1.55800000e+03 
764.844  1.57300000e+03 
764.808  1.58200000e+03 
764.772  1.55400000e+03 
764.736  1.57000000e+03 
764.700  1.63400000e+03 
764.664  1.58700000e+03 
764.628  1.57700000e+03 
764.592  1.57500000e+03 
764.556  1.56800000e+03 
764.520  1.53400000e+03 
764.484  1.59000000e+03 
764.448  1.53900000e+03 
764.413  1.64400000e+03 
764.377  1.60500000e+03 
764.341  1.60800000e+03 
764.305  1.52200000e+03 
764.269  1.54000000e+03 
764.233  1.56100000e+03 
764.197  1.56800000e+03 
764.161  1.50700000e+03 
764.125  1.52400000e+03 
764.089  1.60000000e+03 
764.053  1.59600000e+03 
764.017  1.57500000e+03 
763.981  1.60200000e+03 
763.945  1.59000000e+03 
763.909  1.58700000e+03 
763.873  1.57700000e+03 
763.837  1.62100000e+03 
763.802  1.60700000e+03 
763.766  1.54200000e+03 
763.730  1.55100000e+03 
763.694  1.57800000e+03 
763.658  1.57800000e+03 
763.622  1.57500000e+03 
763.586  1.59900000e+03 
763.550  1.58200000e+03 
763.514  1.52500000e+03 
763.478  1.60800000e+03 
763.442  1.60900000e+03 
763.406  1.55900000e+03 
763.370  1.55100000e+03 
763.334  1.59300000e+03 
763.298  1.62900000e+03 
763.263  1.51800000e+03 
763.227  1.63700000e+03 
763.191  1.65200000e+03 
763.155  1.56300000e+03 
763.119  1.56200000e+03 
763.083  1.58900000e+03 
763.047  1.57200000e+03 
763.011  1.56500000e+03 
762.975  1.61700000e+03 
762.939  1.64700000e+03 
762.903  1.55100000e+03 
762.867  1.59400000e+03 
762.831  1.57000000e+03 
762.795  1.53000000e+03 
762.759  1.62600000e+03 
762.723  1.66700000e+03 
762.688  1.53900000e+03 
762.652  1.61400000e+03 
762.616  1.51100000e+03 
762.580  1.61000000e+03 
762.544  1.58700000e+03 
762.508  1.52800000e+03 
762.472  1.66100000e+03 
762.436  1.63400000e+03 
762.400  1.59600000e+03 
762.364  1.63800000e+03 
762.328  1.53000000e+03 
762.292  1.58200000e+03 
762.256  1.63800000e+03 
762.220  1.65800000e+03 
762.184  1.56100000e+03 
762.148  1.55800000e+03 
762.113  1.59300000e+03 
762.077  1.57400000e+03 
762.041  1.57900000e+03 
762.005  1.66000000e+03 
761.969  1.57900000e+03 
761.933  1.59000000e+03 
761.897  1.56100000e+03 
761.861  1.56400000e+03 
761.825  1.58300000e+03 
761.789  1.64200000e+03 
761.753  1.54000000e+03 
761.717  1.57100000e+03 
761.681  1.54500000e+03 
761.645  1.50000000e+03 
761.609  1.55800000e+03 
761.573  1.58600000e+03 
761.538  1.53900000e+03 
761.502  1.61100000e+03 
761.466  1.61200000e+03 
761.430  1.53300000e+03 
761.394  1.56600000e+03 
761.358  1.56200000e+03 
761.322  1.57400000e+03 
761.286  1.55600000e+03 
761.250  1.61500000e+03 
761.214  1.63300000e+03 
761.178  1.60000000e+03 
761.142  1.57900000e+03 
761.106  1.67400000e+03 
761.070  1.61700000e+03 
761.034  1.56200000e+03 
760.998  1.56100000e+03 
760.962  1.62100000e+03 
760.927  1.59100000e+03 
760.891  1.52900000e+03 
760.855  1.63400000e+03 
760.819  1.59400000e+03 
760.783  1.61500000e+03 
760.747  1.55900000e+03 
760.711  1.53600000e+03 
760.675  1.62000000e+03 
760.639  1.56300000e+03 
760.603  1.61400000e+03 
760.567  1.51700000e+03 
760.531  1.59800000e+03 
760.495  1.62000000e+03 
760.459  1.57400000e+03 
760.423  1.60200000e+03 
760.388  1.61500000e+03 
760.352  1.55700000e+03 
760.316  1.62900000e+03 
760.280  1.58500000e+03 
760.244  1.55100000e+03 
760.208  1.59800000e+03 
760.172  1.52200000e+03 
760.136  1.57800000e+03 
760.100  1.52300000e+03 
760.064  1.52700000e+03 
760.028  1.62000000e+03 
759.992  1.57400000e+03 
759.956  1.50700000e+03 
759.920  1.60600000e+03 
759.884  1.54300000e+03 
759.848  1.61600000e+03 
759.812  1.61100000e+03 
759.777  1.51400000e+03 
759.741  1.58100000e+03 
759.705  1.57100000e+03 
759.669  1.55800000e+03 
759.633  1.56600000e+03 
759.597  1.53700000e+03 
759.561  1.58100000e+03 
759.525  1.66900000e+03 
759.489  1.60900000e+03 
759.453  1.53800000e+03 
759.417  1.60300000e+03 
759.381  1.53400000e+03 
759.345  1.54100000e+03 
759.309  1.58400000e+03 
759.273  1.54800000e+03 
759.238  1.59000000e+03 
759.202  1.61000000e+03 
759.166  1.63600000e+03 
759.130  1.64100000e+03 
759.094  1.68400000e+03 
759.058  1.62400000e+03 
759.022  1.62100000e+03 
758.986  1.55200000e+03 
758.950  1.57500000e+03 
758.914  1.63100000e+03 
758.878  1.55300000e+03 
758.842  1.62400000e+03 
758.806  1.65700000e+03 
758.770  1.62300000e+03 
758.734  1.63200000e+03 
758.698  1.67400000e+03 
758.663  1.64100000e+03 
758.627  1.62400000e+03 
758.591  1.63000000e+03 
758.555  1.57100000e+03 
758.519  1.59600000e+03 
758.483  1.63300000e+03 
758.447  1.62500000e+03 
758.411  1.64800000e+03 
758.375  1.61900000e+03 
758.339  1.60200000e+03 
758.303  1.53500000e+03 
758.267  1.63800000e+03 
758.231  1.56200000e+03 
758.195  1.60900000e+03 
758.159  1.60300000e+03 
758.123  1.54500000e+03 
758.088  1.57900000e+03 
758.052  1.58800000e+03 
758.016  1.59600000e+03 
757.980  1.59600000e+03 
757.944  1.56500000e+03 
757.908  1.68800000e+03 
757.872  1.65200000e+03 
757.836  1.56800000e+03 
757.800  1.62300000e+03 
757.764  1.69400000e+03 
757.728  1.68100000e+03 
757.692  1.64400000e+03 
757.656  1.50600000e+03 
757.620  1.60500000e+03 
757.584  1.58700000e+03 
757.548  1.64000000e+03 
757.513  1.62800000e+03 
757.477  1.63800000e+03 
757.441  1.61600000e+03 
757.405  1.64100000e+03 
757.369  1.57800000e+03 
757.333  1.69100000e+03 
757.297  1.67900000e+03 
757.261  1.59300000e+03 
757.225  1.56800000e+03 
757.189  1.61300000e+03 
757.153  1.65600000e+03 
757.117  1.59100000e+03 
757.081  1.63000000e+03 
757.045  1.66000000e+03 
757.009  1.62300000e+03 
756.973  1.62600000e+03 
756.938  1.60700000e+03 
756.902  1.60000000e+03 
756.866  1.51100000e+03 
756.830  1.67600000e+03 
756.794  1.55200000e+03 
756.758  1.59500000e+03 
756.722  1.54900000e+03 
756.686  1.69500000e+03 
756.650  1.58000000e+03 
756.614  1.54800000e+03 
756.578  1.61200000e+03 
756.542  1.62600000e+03 
756.506  1.56500000e+03 
756.470  1.56000000e+03 
756.434  1.62000000e+03 
756.398  1.55800000e+03 
756.363  1.62500000e+03 
756.327  1.54500000e+03 
756.291  1.59500000e+03 
756.255  1.57600000e+03 
756.219  1.58200000e+03 
756.183  1.57300000e+03 
756.147  1.56600000e+03 
756.111  1.62800000e+03 
756.075  1.65600000e+03 
756.039  1.60000000e+03 
756.003  1.57900000e+03 
755.967  1.57700000e+03 
755.931  1.58200000e+03 
755.895  1.63500000e+03 
755.859  1.59200000e+03 
755.823  1.62000000e+03 
755.788  1.67500000e+03 
755.752  1.62000000e+03 
755.716  1.59600000e+03 
755.680  1.54200000e+03 
755.644  1.57600000e+03 
755.608  1.61800000e+03 
755.572  1.66600000e+03 
755.536  1.65100000e+03 
755.500  1.59000000e+03 
755.464  1.64900000e+03 
755.428  1.63900000e+03 
755.392  1.64800000e+03 
755.356  1.62100000e+03 
755.320  1.62200000e+03 
755.284  1.66300000e+03 
755.248  1.58600000e+03 
755.213  1.59000000e+03 
755.177  1.59300000e+03 
755.141  1.54000000e+03 
755.105  1.65100000e+03 
755.069  1.59200000e+03 
755.033  1.64500000e+03 
754.997  1.59200000e+03 
754.961  1.56800000e+03 
754.925  1.59800000e+03 
754.889  1.59900000e+03 
754.853  1.59000000e+03 
754.817  1.63000000e+03 
754.781  1.55500000e+03 
754.745  1.67300000e+03 
754.709  1.59700000e+03 
754.673  1.57400000e+03 
754.638  1.58100000e+03 
754.602  1.62100000e+03 
754.566  1.60000000e+03 
754.530  1.58200000e+03 
754.494  1.55400000e+03 
754.458  1.64800000e+03 
754.422  1.54300000e+03 
754.386  1.61700000e+03 
754.350  1.61600000e+03 
754.314  1.67600000e+03 
754.278  1.59500000e+03 
754.242  1.67800000e+03 
754.206  1.60400000e+03 
754.170  1.62300000e+03 
754.134  1.59500000e+03 
754.098  1.58600000e+03 
754.062  1.58400000e+03 
754.027  1.57600000e+03 
753.991  1.61200000e+03 
753.955  1.56100000e+03 
753.919  1.58600000e+03 
753.883  1.64200000e+03 
753.847  1.55700000e+03 
753.811  1.61500000e+03 
753.775  1.65600000e+03 
753.739  1.59300000e+03 
753.703  1.60700000e+03 
753.667  1.66900000e+03 
753.631  1.62000000e+03 
753.595  1.55500000e+03 
753.559  1.62100000e+03 
753.523  1.57700000e+03 
753.488  1.56500000e+03 
753.452  1.55800000e+03 
753.416  1.54600000e+03 
753.380  1.57800000e+03 
753.344  1.58400000e+03 
753.308  1.60100000e+03 
753.272  1.60100000e+03 
753.236  1.60900000e+03 
753.200  1.62900000e+03 
753.164  1.54800000e+03 
753.128  1.59800000e+03 
753.092  1.57500000e+03 
753.056  1.56200000e+03 
753.020  1.61100000e+03 
752.984  1.62200000e+03 
752.948  1.56200000e+03 
752.913  1.66800000e+03 
752.877  1.60100000e+03 
752.841  1.60000000e+03 
752.805  1.62100000e+03 
752.769  1.55900000e+03 
752.733  1.53900000e+03 
752.697  1.61400000e+03 
752.661  1.63500000e+03 
752.625  1.60600000e+03 
752.589  1.61900000e+03 
752.553  1.60200000e+03 
752.517  1.60400000e+03 
752.481  1.56100000e+03 
752.445  1.59700000e+03 
752.409  1.65000000e+03 
752.373  1.61600000e+03 
752.338  1.61000000e+03 
752.302  1.63500000e+03 
752.266  1.56500000e+03 
752.230  1.58600000e+03 
752.194  1.63600000e+03 
752.158  1.62700000e+03 
752.122  1.55000000e+03 
752.086  1.59500000e+03 
752.050  1.59500000e+03 
752.014  1.61200000e+03 
751.978  1.59800000e+03 
751.942  1.64100000e+03 
751.906  1.58100000e+03 
751.870  1.60900000e+03 
751.834  1.59300000e+03 
751.798  1.60000000e+03 
751.763  1.57900000e+03 
751.727  1.63400000e+03 
751.691  1.58700000e+03 
751.655  1.55700000e+03 
751.619  1.69700000e+03 
751.583  1.56900000e+03 
751.547  1.63400000e+03 
751.511  1.63400000e+03 
751.475  1.58400000e+03 
751.439  1.57100000e+03 
751.403  1.65700000e+03 
751.367  1.62800000e+03 
751.331  1.63800000e+03 
751.295  1.58500000e+03 
751.259  1.63000000e+03 
751.223  1.61000000e+03 
751.188  1.64100000e+03 
751.152  1.65400000e+03 
751.116  1.60000000e+03 
751.080  1.65900000e+03 
751.044  1.56800000e+03 
751.008  1.59500000e+03 
750.972  1.61900000e+03 
750.936  1.68100000e+03 
750.900  1.62700000e+03 
750.864  1.67100000e+03 
750.828  1.55400000e+03 
750.792  1.54600000e+03 
750.756  1.54100000e+03 
750.720  1.65300000e+03 
750.684  1.61400000e+03 
750.648  1.66400000e+03 
750.613  1.68900000e+03 
750.577  1.52900000e+03 
750.541  1.65800000e+03 
750.505  1.68000000e+03 
750.469  1.59600000e+03 
750.433  1.61000000e+03 
750.397  1.71400000e+03 
750.361  1.64200000e+03 
750.325  1.62300000e+03 
750.289  1.68700000e+03 
750.253  1.59100000e+03 
750.217  1.63700000e+03 
750.181  1.59200000e+03 
750.145  1.57500000e+03 
750.109  1.54600000e+03 
750.073  1.53100000e+03 
750.038  1.68000000e+03 
750.002  1.61500000e+03 
749.966  1.61900000e+03 
749.930  1.68300000e+03 
749.894  1.60400000e+03 
749.858  1.69500000e+03 
749.822  1.67200000e+03 
749.786  1.62100000e+03 
749.750  1.61500000e+03 
749.714  1.71200000e+03 
749.678  1.62900000e+03 
749.642  1.66200000e+03 
749.606  1.69200000e+03 
749.570  1.66700000e+03 
749.534  1.62300000e+03 
749.498  1.65800000e+03 
749.463  1.63500000e+03 
749.427  1.70500000e+03 
749.391  1.53100000e+03 
749.355  1.67200000e+03 
749.319  1.67000000e+03 
749.283  1.66500000e+03 
749.247  1.65900000e+03 
749.211  1.64000000e+03 
749.175  1.60500000e+03 
749.139  1.67000000e+03 
749.103  1.58200000e+03 
749.067  1.63500000e+03 
749.031  1.66600000e+03 
748.995  1.59500000e+03 
748.959  1.65000000e+03 
748.923  1.65400000e+03 
748.888  1.64900000e+03 
748.852  1.60200000e+03 
748.816  1.65700000e+03 
748.780  1.53600000e+03 
748.744  1.70200000e+03 
748.708  1.61100000e+03 
748.672  1.59100000e+03 
748.636  1.54400000e+03 
748.600  1.66900000e+03 
748.564  1.69300000e+03 
748.528  1.68200000e+03 
748.492  1.65000000e+03 
748.456  1.66600000e+03 
748.420  1.65700000e+03 
748.384  1.62500000e+03 
748.348  1.67500000e+03 
748.312  1.65700000e+03 
748.277  1.63900000e+03 
748.241  1.71600000e+03 
748.205  1.64900000e+03 
748.169  1.60500000e+03 
748.133  1.66300000e+03 
748.097  1.65900000e+03 
748.061  1.66500000e+03 
748.025  1.67600000e+03 
747.989  1.61200000e+03 
747.953  1.65400000e+03 
747.917  1.64600000e+03 
747.881  1.70800000e+03 
747.845  1.67600000e+03 
747.809  1.60100000e+03 
747.773  1.67400000e+03 
747.738  1.63800000e+03 
747.702  1.73000000e+03 
747.666  1.67900000e+03 
747.630  1.60800000e+03 
747.594  1.61700000e+03 
747.558  1.61400000e+03 
747.522  1.56100000e+03 
747.486  1.69000000e+03 
747.450  1.57000000e+03 
747.414  1.71200000e+03 
747.378  1.79100000e+03 
747.342  1.65700000e+03 
747.306  1.69100000e+03 
747.270  1.62900000e+03 
747.234  1.57000000e+03 
747.198  1.61100000e+03 
747.163  1.66000000e+03 
747.127  1.67100000e+03 
747.091  1.67100000e+03 
747.055  1.65700000e+03 
747.019  1.69000000e+03 
746.983  1.68500000e+03 
746.947  1.67700000e+03 
746.911  1.65300000e+03 
746.875  1.65800000e+03 
746.839  1.65100000e+03 
746.803  1.80600000e+03 
746.767  1.64000000e+03 
746.731  1.69300000e+03 
746.695  1.67100000e+03 
746.659  1.60500000e+03 
746.623  1.65400000e+03 
746.588  1.69400000e+03 
746.552  1.72800000e+03 
746.516  1.68500000e+03 
746.480  1.67800000e+03 
746.444  1.74200000e+03 
746.408  1.68500000e+03 
746.372  1.58900000e+03 
746.336  1.63600000e+03 
746.300  1.66600000e+03 
746.264  1.65500000e+03 
746.228  1.64400000e+03 
746.192  1.66900000e+03 
746.156  1.65400000e+03 
746.120  1.74900000e+03 
746.084  1.66900000e+03 
746.048  1.64400000e+03 
746.013  1.58900000e+03 
745.977  1.63200000e+03 
745.941  1.62200000e+03 
745.905  1.60900000e+03 
745.869  1.67400000e+03 
745.833  1.74300000e+03 
745.797  1.72100000e+03 
745.761  1.68100000e+03 
745.725  1.67500000e+03 
745.689  1.69800000e+03 
745.653  1.65400000e+03 
745.617  1.72700000e+03 
745.581  1.59800000e+03 
745.545  1.60700000e+03 
745.509  1.73200000e+03 
745.473  1.64500000e+03 
745.438  1.70100000e+03 
745.402  1.67200000e+03 
745.366  1.64700000e+03 
745.330  1.67900000e+03 
745.294  1.65300000e+03 
745.258  1.71700000e+03 
745.222  1.70600000e+03 
745.186  1.59700000e+03 
745.150  1.67500000e+03 
745.114  1.68900000e+03 
745.078  1.69500000e+03 
745.042  1.66800000e+03 
745.006  1.63700000e+03 
744.970  1.66000000e+03 
744.934  1.71700000e+03 
744.898  1.73200000e+03 
744.863  1.64700000e+03 
744.827  1.73600000e+03 
744.791  1.71600000e+03 
744.755  1.73000000e+03 
744.719  1.68000000e+03 
744.683  1.61800000e+03 
744.647  1.69900000e+03 
744.611  1.64100000e+03 
744.575  1.64100000e+03 
744.539  1.64800000e+03 
744.503  1.69800000e+03 
744.467  1.67500000e+03 
744.431  1.68800000e+03 
744.395  1.73100000e+03 
744.359  1.68500000e+03 
744.323  1.68100000e+03 
744.288  1.63800000e+03 
744.252  1.66000000e+03 
744.216  1.76100000e+03 
744.180  1.64600000e+03 
744.144  1.71800000e+03 
744.108  1.60800000e+03 
744.072  1.71600000e+03 
744.036  1.70000000e+03 
744.000  1.66200000e+03 
743.964  1.64000000e+03 
743.928  1.69300000e+03 
743.892  1.66200000e+03 
743.856  1.71500000e+03 
743.820  1.67900000e+03 
743.784  1.68900000e+03 
743.748  1.64700000e+03 
743.713  1.67900000e+03 
743.677  1.65600000e+03 
743.641  1.64500000e+03 
743.605  1.60400000e+03 
743.569  1.69800000e+03 
743.533  1.67900000e+03 
743.497  1.73400000e+03 
743.461  1.65800000e+03 
743.425  1.75500000e+03 
743.389  1.65000000e+03 
743.353  1.69700000e+03 
743.317  1.70700000e+03 
743.281  1.71900000e+03 
743.245  1.73900000e+03 
743.209  1.65300000e+03 
743.173  1.69100000e+03 
743.138  1.69900000e+03 
743.102  1.71300000e+03 
743.066  1.68400000e+03 
743.030  1.69800000e+03 
742.994  1.65600000e+03 
742.958  1.71900000e+03 
742.922  1.74500000e+03 
742.886  1.75100000e+03 
742.850  1.71900000e+03 
742.814  1.69100000e+03 
742.778  1.70700000e+03 
742.742  1.69500000e+03 
742.706  1.60100000e+03 
742.670  1.65900000e+03 
742.634  1.66600000e+03 
742.598  1.67600000e+03 
742.562  1.66700000e+03 
742.527  1.68500000e+03 
742.491  1.66800000e+03 
742.455  1.77800000e+03 
742.419  1.63200000e+03 
742.383  1.66100000e+03 
742.347  1.65600000e+03 
742.311  1.64900000e+03 
742.275  1.69800000e+03 
742.239  1.60800000e+03 
742.203  1.64400000e+03 
742.167  1.66900000e+03 
742.131  1.65300000e+03 
742.095  1.67300000e+03 
742.059  1.71200000e+03 
742.023  1.68800000e+03 
741.988  1.68700000e+03 
741.952  1.64900000e+03 
741.916  1.67800000e+03 
741.880  1.70800000e+03 
741.844  1.73000000e+03 
741.808  1.69700000e+03 
741.772  1.69900000e+03 
741.736  1.74500000e+03 
741.700  1.71300000e+03 
741.664  1.66800000e+03 
741.628  1.71800000e+03 
741.592  1.68600000e+03 
741.556  1.66700000e+03 
741.520  1.62900000e+03 
741.484  1.67700000e+03 
741.448  1.71700000e+03 
741.413  1.70400000e+03 
741.377  1.67700000e+03 
741.341  1.70100000e+03 
741.305  1.64100000e+03 
741.269  1.69700000e+03 
741.233  1.62800000e+03 
741.197  1.68200000e+03 
741.161  1.71800000e+03 
741.125  1.73500000e+03 
741.089  1.65700000e+03 
741.053  1.70600000e+03 
741.017  1.74900000e+03 
740.981  1.66700000e+03 
740.945  1.74200000e+03 
740.909  1.75100000e+03 
740.873  1.70900000e+03 
740.838  1.74300000e+03 
740.802  1.68800000e+03 
740.766  1.63900000e+03 
740.730  1.69100000e+03 
740.694  1.70800000e+03 
740.658  1.69800000e+03 
740.622  1.69800000e+03 
740.586  1.71000000e+03 
740.550  1.70800000e+03 
740.514  1.71400000e+03 
740.478  1.70800000e+03 
740.442  1.74200000e+03 
740.406  1.78100000e+03 
740.370  1.75300000e+03 
740.334  1.70400000e+03 
740.298  1.69600000e+03 
740.263  1.71900000e+03 
740.227  1.68400000e+03 
740.191  1.73600000e+03 
740.155  1.78700000e+03 
740.119  1.68600000e+03 
740.083  1.71600000e+03 
740.047  1.61200000e+03 
740.011  1.72200000e+03 
739.975  1.68100000e+03 
739.939  1.68500000e+03 
739.903  1.66200000e+03 
739.867  1.73200000e+03 
739.831  1.66800000e+03 
739.795  1.78800000e+03 
739.759  1.72900000e+03 
739.723  1.74800000e+03 
739.688  1.74500000e+03 
739.652  1.70600000e+03 
739.616  1.66100000e+03 
739.580  1.70200000e+03 
739.544  1.76800000e+03 
739.508  1.79500000e+03 
739.472  1.73800000e+03 
739.436  1.73500000e+03 
739.400  1.63300000e+03 
739.364  1.73000000e+03 
739.328  1.64800000e+03 
739.292  1.67100000e+03 
739.256  1.73900000e+03 
739.220  1.67900000e+03 
739.184  1.68400000e+03 
739.148  1.72200000e+03 
739.113  1.73600000e+03 
739.077  1.71200000e+03 
739.041  1.63800000e+03 
739.005  1.64000000e+03 
738.969  1.72900000e+03 
738.933  1.78500000e+03 
738.897  1.73600000e+03 
738.861  1.68700000e+03 
738.825  1.71200000e+03 
738.789  1.70900000e+03 
738.753  1.69100000e+03 
738.717  1.73500000e+03 
738.681  1.70300000e+03 
738.645  1.73300000e+03 
738.609  1.77000000e+03 
738.573  1.74400000e+03 
738.538  1.67100000e+03 
738.502  1.67000000e+03 
738.466  1.65000000e+03 
738.430  1.65800000e+03 
738.394  1.79600000e+03 
738.358  1.67500000e+03 
738.322  1.69600000e+03 
738.286  1.69600000e+03 
738.250  1.71200000e+03 
738.214  1.71700000e+03 
738.178  1.61600000e+03 
738.142  1.68800000e+03 
738.106  1.72400000e+03 
738.070  1.65800000e+03 
738.034  1.68200000e+03 
737.998  1.71300000e+03 
737.963  1.63000000e+03 
737.927  1.70400000e+03 
737.891  1.66500000e+03 
737.855  1.67000000e+03 
737.819  1.68300000e+03 
737.783  1.70800000e+03 
737.747  1.73400000e+03 
737.711  1.76200000e+03 
737.675  1.73400000e+03 
737.639  1.68900000e+03 
737.603  1.68100000e+03 
737.567  1.66500000e+03 
737.531  1.65300000e+03 
737.495  1.70200000e+03 
737.459  1.74600000e+03 
737.423  1.73700000e+03 
737.388  1.70300000e+03 
737.352  1.75300000e+03 
737.316  1.73100000e+03 
737.280  1.72200000e+03 
737.244  1.72900000e+03 
737.208  1.66200000e+03 
737.172  1.77400000e+03 
737.136  1.69200000e+03 
737.100  1.71100000e+03 
737.064  1.66800000e+03 
737.028  1.75500000e+03 
736.992  1.63000000e+03 
736.956  1.73800000e+03 
736.920  1.83100000e+03 
736.884  1.71600000e+03 
736.848  1.71900000e+03 
736.812  1.71200000e+03 
736.777  1.69300000e+03 
736.741  1.66900000e+03 
736.705  1.67500000e+03 
736.669  1.69000000e+03 
736.633  1.73900000e+03 
736.597  1.69900000e+03 
736.561  1.69400000e+03 
736.525  1.75900000e+03 
736.489  1.71500000e+03 
736.453  1.70100000e+03 
736.417  1.70900000e+03 
736.381  1.82100000e+03 
736.345  1.73000000e+03 
736.309  1.75800000e+03 
736.273  1.66900000e+03 
736.238  1.69900000e+03 
736.202  1.68200000e+03 
736.166  1.68100000e+03 
736.130  1.72300000e+03 
736.094  1.66200000e+03 
736.058  1.70600000e+03 
736.022  1.67600000e+03 
735.986  1.69600000e+03 
735.950  1.76300000e+03 
735.914  1.75900000e+03 
735.878  1.63000000e+03 
735.842  1.70000000e+03 
735.806  1.75400000e+03 
735.770  1.73800000e+03 
735.734  1.77800000e+03 
735.698  1.68000000e+03 
735.663  1.67800000e+03 
735.627  1.72100000e+03 
735.591  1.71300000e+03 
735.555  1.72700000e+03 
735.519  1.68700000e+03 
735.483  1.74100000e+03 
735.447  1.75600000e+03 
735.411  1.66200000e+03 
735.375  1.64800000e+03 
735.339  1.71200000e+03 
735.303  1.75000000e+03 
735.267  1.74800000e+03 
735.231  1.63900000e+03 
735.195  1.72600000e+03 
735.159  1.73900000e+03 
735.123  1.80300000e+03 
735.088  1.75700000e+03 
735.052  1.63500000e+03 
735.016  1.75400000e+03 
734.980  1.72500000e+03 
734.944  1.76100000e+03 
734.908  1.74700000e+03 
734.872  1.68500000e+03 
734.836  1.78200000e+03 
734.800  1.68200000e+03 
734.764  1.72100000e+03 
734.728  1.68200000e+03 
734.692  1.69600000e+03 
734.656  1.74600000e+03 
734.620  1.70300000e+03 
734.584  1.72900000e+03 
734.548  1.64700000e+03 
734.513  1.65800000e+03 
734.477  1.75300000e+03 
734.441  1.69200000e+03 
734.405  1.66500000e+03 
734.369  1.70500000e+03 
734.333  1.71400000e+03 
734.297  1.66000000e+03 
734.261  1.75900000e+03 
734.225  1.71400000e+03 
734.189  1.74300000e+03 
734.153  1.74700000e+03 
734.117  1.73600000e+03 
734.081  1.67000000e+03 
734.045  1.70000000e+03 
734.009  1.63300000e+03 
733.973  1.70600000e+03 
733.938  1.73800000e+03 
733.902  1.76300000e+03 
733.866  1.68200000e+03 
733.830  1.75000000e+03 
733.794  1.66600000e+03 
733.758  1.66400000e+03 
733.722  1.75400000e+03 
733.686  1.66300000e+03 
733.650  1.75100000e+03 
733.614  1.73300000e+03 
733.578  1.66600000e+03 
733.542  1.67400000e+03 
733.506  1.78200000e+03 
733.470  1.68900000e+03 
733.434  1.67300000e+03 
733.398  1.78800000e+03 
733.363  1.81200000e+03 
733.327  1.71500000e+03 
733.291  1.75500000e+03 
733.255  1.73300000e+03 
733.219  1.71700000e+03 
733.183  1.69100000e+03 
733.147  1.72700000e+03 
733.111  1.64900000e+03 
733.075  1.70200000e+03 
733.039  1.67700000e+03 
733.003  1.67900000e+03 
732.967  1.70300000e+03 
732.931  1.73000000e+03 
732.895  1.74800000e+03 
732.859  1.65500000e+03 
732.823  1.79900000e+03 
732.788  1.71000000e+03 
732.752  1.69900000e+03 
732.716  1.76100000e+03 
732.680  1.68900000e+03 
732.644  1.67800000e+03 
732.608  1.71600000e+03 
732.572  1.67700000e+03 
732.536  1.77100000e+03 
732.500  1.72100000e+03 
732.464  1.75100000e+03 
732.428  1.73000000e+03 
732.392  1.80600000e+03 
732.356  1.69100000e+03 
732.320  1.79900000e+03 
732.284  1.72600000e+03 
732.248  1.68000000e+03 
732.213  1.83800000e+03 
732.177  1.74100000e+03 
732.141  1.71900000e+03 
732.105  1.72700000e+03 
732.069  1.75600000e+03 
732.033  1.76800000e+03 
731.997  1.66800000e+03 
731.961  1.73500000e+03 
731.925  1.72700000e+03 
731.889  1.81200000e+03 
731.853  1.69300000e+03 
731.817  1.68800000e+03 
731.781  1.81300000e+03 
731.745  1.79200000e+03 
731.709  1.74100000e+03 
731.673  1.69200000e+03 
731.638  1.73700000e+03 
731.602  1.79600000e+03 
731.566  1.72900000e+03 
731.530  1.70300000e+03 
731.494  1.62500000e+03 
731.458  1.85800000e+03 
731.422  1.76200000e+03 
731.386  1.84300000e+03 
731.350  1.67900000e+03 
731.314  1.73700000e+03 
731.278  1.76800000e+03 
731.242  1.76900000e+03 
731.206  1.74600000e+03 
731.170  1.71100000e+03 
731.134  1.74900000e+03 
731.098  1.75200000e+03 
731.062  1.75500000e+03 
731.027  1.70800000e+03 
730.991  1.71600000e+03 
730.955  1.73500000e+03 
730.919  1.76400000e+03 
730.883  1.72900000e+03 
730.847  1.71300000e+03 
730.811  1.84200000e+03 
730.775  1.72000000e+03 
730.739  1.77600000e+03 
730.703  1.74500000e+03 
730.667  1.75900000e+03 
730.631  1.72700000e+03 
730.595  1.76100000e+03 
730.559  1.74800000e+03 
730.523  1.77600000e+03 
730.488  1.73500000e+03 
730.452  1.76600000e+03 
730.416  1.73000000e+03 
730.380  1.76600000e+03 
730.344  1.69800000e+03 
730.308  1.71600000e+03 
730.272  1.71000000e+03 
730.236  1.79600000e+03 
730.200  1.64500000e+03 
730.164  1.59800000e+03 
730.128  1.68000000e+03 
730.092  1.69200000e+03 
730.056  1.65500000e+03 
730.020  1.76800000e+03 
729.984  1.76100000e+03 
729.948  1.79400000e+03 
729.913  1.66000000e+03 
729.877  1.70200000e+03 
729.841  1.72900000e+03 
729.805  1.74600000e+03 
729.769  1.75900000e+03 
729.733  1.73300000e+03 
729.697  1.70600000e+03 
729.661  1.76400000e+03 
729.625  1.70800000e+03 
729.589  1.70300000e+03 
729.553  1.77100000e+03 
729.517  1.75900000e+03 
729.481  1.69200000e+03 
729.445  1.75900000e+03 
729.409  1.75300000e+03 
729.373  1.70200000e+03 
729.338  1.67600000e+03 
729.302  1.75400000e+03 
729.266  1.77700000e+03 
729.230  1.76600000e+03 
729.194  1.71400000e+03 
729.158  1.72300000e+03 
729.122  1.74500000e+03 
729.086  1.73000000e+03 
729.050  1.68300000e+03 
729.014  1.72600000e+03 
728.978  1.70000000e+03 
728.942  1.77000000e+03 
728.906  1.83200000e+03 
728.870  1.68200000e+03 
728.834  1.72700000e+03 
728.798  1.76800000e+03 
728.763  1.75900000e+03 
728.727  1.68800000e+03 
728.691  1.77800000e+03 
728.655  1.74800000e+03 
728.619  1.75200000e+03 
728.583  1.78100000e+03 
728.547  1.72800000e+03 
728.511  1.71300000e+03 
728.475  1.79200000e+03 
728.439  1.73500000e+03 
728.403  1.77900000e+03 
728.367  1.78400000e+03 
728.331  1.77100000e+03 
728.295  1.77000000e+03 
728.259  1.74800000e+03 
728.223  1.71900000e+03 
728.188  1.67100000e+03 
728.152  1.71100000e+03 
728.116  1.71500000e+03 
728.080  1.70900000e+03 
728.044  1.70400000e+03 
728.008  1.68100000e+03 
727.972  1.77700000e+03 
727.936  1.75300000e+03 
727.900  1.78700000e+03 
727.864  1.74500000e+03 
727.828  1.71000000e+03 
727.792  1.74500000e+03 
727.756  1.73500000e+03 
727.720  1.77800000e+03 
727.684  1.73600000e+03 
727.648  1.74900000e+03 
727.613  1.75900000e+03 
727.577  1.68600000e+03 
727.541  1.70000000e+03 
727.505  1.66800000e+03 
727.469  1.71100000e+03 
727.433  1.73300000e+03 
727.397  1.74400000e+03 
727.361  1.71600000e+03 
727.325  1.75100000e+03 
727.289  1.79500000e+03 
727.253  1.76400000e+03 
727.217  1.67200000e+03 
727.181  1.67300000e+03 
727.145  1.73300000e+03 
727.109  1.65300000e+03 
727.073  1.73700000e+03 
727.038  1.79000000e+03 
727.002  1.75300000e+03 
726.966  1.71900000e+03 
726.930  1.75400000e+03 
726.894  1.72100000e+03 
726.858  1.68300000e+03 
726.822  1.72900000e+03 
726.786  1.84500000e+03 
726.750  1.73100000e+03 
726.714  1.71600000e+03 
726.678  1.78400000e+03 
726.642  1.78300000e+03 
726.606  1.70500000e+03 
726.570  1.76200000e+03 
726.534  1.71000000e+03 
726.498  1.75800000e+03 
726.463  1.66200000e+03 
726.427  1.74100000e+03 
726.391  1.74400000e+03 
726.355  1.72900000e+03 
726.319  1.72600000e+03 
726.283  1.75700000e+03 
726.247  1.72500000e+03 
726.211  1.75000000e+03 
726.175  1.80600000e+03 
726.139  1.71200000e+03 
726.103  1.74700000e+03 
726.067  1.74500000e+03 
726.031  1.81400000e+03 
725.995  1.69800000e+03 
725.959  1.76700000e+03 
725.923  1.78800000e+03 
725.888  1.74300000e+03 
725.852  1.77000000e+03 
725.816  1.76500000e+03 
725.780  1.71600000e+03 
725.744  1.78600000e+03 
725.708  1.74900000e+03 
725.672  1.61900000e+03 
725.636  1.65600000e+03 
725.600  1.66500000e+03 
725.564  1.72100000e+03 
725.528  1.81100000e+03 
725.492  1.78600000e+03 
725.456  1.73600000e+03 
725.420  1.70500000e+03 
725.384  1.76000000e+03 
725.348  1.67600000e+03 
725.312  1.68100000e+03 
725.277  1.74400000e+03 
725.241  1.78700000e+03 
725.205  1.76700000e+03 
725.169  1.70000000e+03 
725.133  1.74900000e+03 
725.097  1.77300000e+03 
725.061  1.79800000e+03 
725.025  1.67100000e+03 
724.989  1.76500000e+03 
724.953  1.71900000e+03 
724.917  1.73500000e+03 
724.881  1.73600000e+03 
724.845  1.76400000e+03 
724.809  1.77200000e+03 
724.773  1.74600000e+03 
724.738  1.74600000e+03 
724.702  1.67800000e+03 
724.666  1.75300000e+03 
724.630  1.74700000e+03 
724.594  1.77500000e+03 
724.558  1.78800000e+03 
724.522  1.72200000e+03 
724.486  1.76200000e+03 
724.450  1.75800000e+03 
724.414  1.70100000e+03 
724.378  1.72800000e+03 
724.342  1.78600000e+03 
724.306  1.64500000e+03 
724.270  1.73800000e+03 
724.234  1.73800000e+03 
724.198  1.62500000e+03 
724.163  1.65000000e+03 
724.127  1.80800000e+03 
724.091  1.76000000e+03 
724.055  1.75000000e+03 
724.019  1.78300000e+03 
723.983  1.83800000e+03 
723.947  1.69700000e+03 
723.911  1.75300000e+03 
723.875  1.72000000e+03 
723.839  1.71600000e+03 
723.803  1.72600000e+03 
723.767  1.75400000e+03 
723.731  1.75400000e+03 
723.695  1.73500000e+03 
723.659  1.76300000e+03 
723.623  1.79800000e+03 
723.588  1.75100000e+03 
723.552  1.73500000e+03 
723.516  1.79300000e+03 
723.480  1.70300000e+03 
723.444  1.76800000e+03 
723.408  1.72700000e+03 
723.372  1.83100000e+03 
723.336  1.76200000e+03 
723.300  1.72600000e+03 
723.264  1.80400000e+03 
723.228  1.72600000e+03 
723.192  1.79700000e+03 
723.156  1.81000000e+03 
723.120  1.76900000e+03 
723.084  1.80900000e+03 
723.048  1.73700000e+03 
723.013  1.75500000e+03 
722.977  1.74500000e+03 
722.941  1.74500000e+03 
722.905  1.78100000e+03 
722.869  1.74500000e+03 
722.833  1.76400000e+03 
722.797  1.72600000e+03 
722.761  1.75600000e+03 
722.725  1.70600000e+03 
722.689  1.73200000e+03 
722.653  1.78400000e+03 
722.617  1.76100000e+03 
722.581  1.75500000e+03 
722.545  1.80500000e+03 
722.509  1.83500000e+03 
722.473  1.74900000e+03 
722.438  1.71500000e+03 
722.402  1.77400000e+03 
722.366  1.70000000e+03 
722.330  1.80400000e+03 
722.294  1.66100000e+03 
722.258  1.62900000e+03 
722.222  1.76800000e+03 
722.186  1.78100000e+03 
722.150  1.76200000e+03 
722.114  1.75000000e+03 
722.078  1.73400000e+03 
722.042  1.77800000e+03 
722.006  1.69300000e+03 
721.970  1.74400000e+03 
721.934  1.67900000e+03 
721.898  1.80000000e+03 
721.863  1.77900000e+03 
721.827  1.74100000e+03 
721.791  1.79300000e+03 
721.755  1.78100000e+03 
721.719  1.76200000e+03 
721.683  1.79700000e+03 
721.647  1.77300000e+03 
721.611  1.70400000e+03 
721.575  1.82500000e+03 
721.539  1.76000000e+03 
721.503  1.75000000e+03 
721.467  1.71800000e+03 
721.431  1.72800000e+03 
721.395  1.75900000e+03 
721.359  1.72800000e+03 
721.323  1.81000000e+03 
721.288  1.72700000e+03 
721.252  1.76000000e+03 
721.216  1.77000000e+03 
721.180  1.79800000e+03 
721.144  1.81500000e+03 
721.108  1.75000000e+03 
721.072  1.71900000e+03 
721.036  1.75500000e+03 
721.000  1.76700000e+03 
720.964  1.86300000e+03 
720.928  1.84700000e+03 
720.892  1.77400000e+03 
720.856  1.77200000e+03 
720.820  1.76500000e+03 
720.784  1.71400000e+03 
720.748  1.79500000e+03 
720.713  1.70800000e+03 
720.677  1.75700000e+03 
720.641  1.73100000e+03 
720.605  1.77000000e+03 
720.569  1.79600000e+03 
720.533  1.71500000e+03 
720.497  1.77700000e+03 
720.461  1.76000000e+03 
720.425  1.80000000e+03 
720.389  1.77800000e+03 
720.353  1.75900000e+03 
720.317  1.75100000e+03 
720.281  1.76200000e+03 
720.245  1.81000000e+03 
720.209  1.70800000e+03 
720.173  1.72900000e+03 
720.138  1.66700000e+03 
720.102  1.78600000e+03 
720.066  1.80500000e+03 
720.030  1.72100000e+03 
719.994  1.79300000e+03 
719.958  1.77900000e+03 
719.922  1.77900000e+03 
719.886  1.69900000e+03 
719.850  1.81500000e+03 
719.814  1.73900000e+03 
719.778  1.79900000e+03 
719.742  1.75700000e+03 
719.706  1.69000000e+03 
719.670  1.83000000e+03 
719.634  1.71800000e+03 
719.598  1.76100000e+03 
719.562  1.84600000e+03 
719.527  1.72200000e+03 
719.491  1.70100000e+03 
719.455  1.72200000e+03 
719.419  1.76100000e+03 
719.383  1.80800000e+03 
719.347  1.78800000e+03 
719.311  1.72700000e+03 
719.275  1.78100000e+03 
719.239  1.79900000e+03 
719.203  1.73000000e+03 
719.167  1.78500000e+03 
719.131  1.75600000e+03 
719.095  1.80000000e+03 
719.059  1.74900000e+03 
719.023  1.70700000e+03 
718.988  1.73200000e+03 
718.952  1.75000000e+03 
718.916  1.76500000e+03 
718.880  1.73100000e+03 
718.844  1.73400000e+03 
718.808  1.69300000e+03 
718.772  1.78600000e+03 
718.736  1.77500000e+03 
718.700  1.77800000e+03 
718.664  1.68800000e+03 
718.628  1.70000000e+03 
718.592  1.71100000e+03 
718.556  1.74500000e+03 
718.520  1.77300000e+03 
718.484  1.73200000e+03 
718.448  1.82200000e+03 
718.413  1.83700000e+03 
718.377  1.72400000e+03 
718.341  1.83200000e+03 
718.305  1.81700000e+03 
718.269  1.77300000e+03 
718.233  1.83500000e+03 
718.197  1.77000000e+03 
718.161  1.70100000e+03 
718.125  1.69000000e+03 
718.089  1.78400000e+03 
718.053  1.72100000e+03 
718.017  1.76200000e+03 
717.981  1.78800000e+03 
717.945  1.79300000e+03 
717.909  1.76000000e+03 
717.873  1.79400000e+03 
717.838  1.75900000e+03 
717.802  1.77400000e+03 
717.766  1.79100000e+03 
717.730  1.80000000e+03 
717.694  1.78400000e+03 
717.658  1.81900000e+03 
717.622  1.79100000e+03 
717.586  1.70100000e+03 
717.550  1.75000000e+03 
717.514  1.77500000e+03 
717.478  1.75300000e+03 
717.442  1.73100000e+03 
717.406  1.81900000e+03 
717.370  1.79300000e+03 
717.334  1.68300000e+03 
717.298  1.81800000e+03 
717.263  1.75800000e+03 
717.227  1.81300000e+03 
717.191  1.75500000e+03 
717.155  1.73600000e+03 
717.119  1.76600000e+03 
717.083  1.78400000e+03 
717.047  1.82100000e+03 
717.011  1.77600000e+03 
716.975  1.72300000e+03 
716.939  1.79300000e+03 
716.903  1.78500000e+03 
716.867  1.78500000e+03 
716.831  1.78400000e+03 
716.795  1.72900000e+03 
716.759  1.73200000e+03 
716.723  1.72400000e+03 
716.688  1.70300000e+03 
716.652  1.70700000e+03 
716.616  1.82800000e+03 
716.580  1.84200000e+03 
716.544  1.76100000e+03 
716.508  1.76500000e+03 
716.472  1.73100000e+03 
716.436  1.80800000e+03 
716.400  1.76500000e+03 
716.364  1.76100000e+03 
716.328  1.79700000e+03 
716.292  1.74000000e+03 
716.256  1.81200000e+03 
716.220  1.79100000e+03 
716.184  1.79300000e+03 
716.148  1.78600000e+03 
716.113  1.74600000e+03 
716.077  1.71400000e+03 
716.041  1.71100000e+03 
716.005  1.80400000e+03 
715.969  1.73800000e+03 
715.933  1.71900000e+03 
715.897  1.81500000e+03 
715.861  1.73100000e+03 
715.825  1.74200000e+03 
715.789  1.76600000e+03 
715.753  1.75200000e+03 
715.717  1.75900000e+03 
715.681  1.77300000e+03 
715.645  1.71500000e+03 
715.609  1.78600000e+03 
715.573  1.80200000e+03 
715.538  1.67300000e+03 
715.502  1.78300000e+03 
715.466  1.73400000e+03 
715.430  1.81200000e+03 
715.394  1.76700000e+03 
715.358  1.82700000e+03 
715.322  1.78100000e+03 
715.286  1.83000000e+03 
715.250  1.78100000e+03 
715.214  1.75300000e+03 
715.178  1.77600000e+03 
715.142  1.86800000e+03 
715.106  1.72800000e+03 
715.070  1.77700000e+03 
715.034  1.80100000e+03 
714.998  1.77200000e+03 
714.963  1.71400000e+03 
714.927  1.78000000e+03 
714.891  1.81700000e+03 
714.855  1.70700000e+03 
714.819  1.81800000e+03 
714.783  1.74800000e+03 
714.747  1.74600000e+03 
714.711  1.80700000e+03 
714.675  1.74300000e+03 
714.639  1.72800000e+03 
714.603  1.77100000e+03 
714.567  1.75300000e+03 
714.531  1.83800000e+03 
714.495  1.78700000e+03 
714.459  1.71500000e+03 
714.423  1.69400000e+03 
714.388  1.77900000e+03 
714.352  1.80900000e+03 
714.316  1.80100000e+03 
714.280  1.89600000e+03 
714.244  1.80800000e+03 
714.208  1.85000000e+03 
714.172  1.79300000e+03 
714.136  1.77800000e+03 
714.100  1.71900000e+03 
714.064  1.83500000e+03 
714.028  1.79400000e+03 
713.992  1.74800000e+03 
713.956  1.81500000e+03 
713.920  1.80800000e+03 
713.884  1.78100000e+03 
713.848  1.78100000e+03 
713.812  1.75500000e+03 
713.777  1.82500000e+03 
713.741  1.69500000e+03 
713.705  1.81100000e+03 
713.669  1.71400000e+03 
713.633  1.73800000e+03 
713.597  1.83300000e+03 
713.561  1.78200000e+03 
713.525  1.67700000e+03 
713.489  1.78600000e+03 
713.453  1.78200000e+03 
713.417  1.84900000e+03 
713.381  1.79800000e+03 
713.345  1.76600000e+03 
713.309  1.77700000e+03 
713.273  1.76100000e+03 
713.238  1.72600000e+03 
713.202  1.74000000e+03 
713.166  1.77700000e+03 
713.130  1.77200000e+03 
713.094  1.75400000e+03 
713.058  1.77100000e+03 
713.022  1.78700000e+03 
712.986  1.80800000e+03 
712.950  1.77600000e+03 
712.914  1.81300000e+03 
712.878  1.85600000e+03 
712.842  1.73400000e+03 
712.806  1.81200000e+03 
712.770  1.68000000e+03 
712.734  1.83000000e+03 
712.698  1.71100000e+03 
712.663  1.77000000e+03 
712.627  1.75600000e+03 
712.591  1.77600000e+03 
712.555  1.74100000e+03 
712.519  1.74400000e+03 
712.483  1.77000000e+03 
712.447  1.79200000e+03 
712.411  1.68800000e+03 
712.375  1.82900000e+03 
712.339  1.80000000e+03 
712.303  1.82800000e+03 
712.267  1.76100000e+03 
712.231  1.81700000e+03 
712.195  1.72600000e+03 
712.159  1.82000000e+03 
712.123  1.70700000e+03 
712.088  1.76900000e+03 
712.052  1.78400000e+03 
712.016  1.77000000e+03 
711.980  1.76600000e+03 
711.944  1.80300000e+03 
711.908  1.72900000e+03 
711.872  1.75000000e+03 
711.836  1.72700000e+03 
711.800  1.75400000e+03 
711.764  1.77700000e+03 
711.728  1.76600000e+03 
711.692  1.76500000e+03 
711.656  1.73100000e+03 
711.620  1.85800000e+03 
711.584  1.84100000e+03 
711.548  1.81800000e+03 
711.513  1.77500000e+03 
711.477  1.76100000e+03 
711.441  1.69300000e+03 
711.405  1.72500000e+03 
711.369  1.75000000e+03 
711.333  1.84400000e+03 
711.297  1.80800000e+03 
711.261  1.75500000e+03 
711.225  1.83300000e+03 
711.189  1.73300000e+03 
711.153  1.82200000e+03 
711.117  1.73200000e+03 
711.081  1.82900000e+03 
711.045  1.76500000e+03 
711.009  1.76400000e+03 
710.973  1.80700000e+03 
710.938  1.78100000e+03 
710.902  1.71400000e+03 
710.866  1.83300000e+03 
710.830  1.76400000e+03 
710.794  1.83700000e+03 
710.758  1.75200000e+03 
710.722  1.71700000e+03 
710.686  1.78200000e+03 
710.650  1.78400000e+03 
710.614  1.86900000e+03 
710.578  1.78900000e+03 
710.542  1.77500000e+03 
710.506  1.77500000e+03 
710.470  1.73800000e+03 
710.434  1.82000000e+03 
710.398  1.79200000e+03 
710.363  1.75500000e+03 
710.327  1.79000000e+03 
710.291  1.72600000e+03 
710.255  1.76100000e+03 
710.219  1.66700000e+03 
710.183  1.90400000e+03 
710.147  1.74900000e+03 
710.111  1.83300000e+03 
710.075  1.81100000e+03 
710.039  1.78300000e+03 
710.003  1.82000000e+03 
709.967  1.76900000e+03 
709.931  1.72200000e+03 
709.895  1.79200000e+03 
709.859  1.79100000e+03 
709.823  1.80600000e+03 
709.788  1.77100000e+03 
709.752  1.79700000e+03 
709.716  1.79200000e+03 
709.680  1.81400000e+03 
709.644  1.78600000e+03 
709.608  1.80700000e+03 
709.572  1.72700000e+03 
709.536  1.85300000e+03 
709.500  1.67100000e+03 
709.464  1.77000000e+03 
709.428  1.78900000e+03 
709.392  1.79900000e+03 
709.356  1.73700000e+03 
709.320  1.75900000e+03 
709.284  1.83700000e+03 
709.248  1.78300000e+03 
709.213  1.80400000e+03 
709.177  1.81200000e+03 
709.141  1.81300000e+03 
709.105  1.81700000e+03 
709.069  1.76300000e+03 
709.033  1.79600000e+03 
708.997  1.71000000e+03 
708.961  1.73400000e+03 
708.925  1.85500000e+03 
708.889  1.75900000e+03 
708.853  1.79600000e+03 
708.817  1.74200000e+03 
708.781  1.72200000e+03 
708.745  1.74300000e+03 
708.709  1.73600000e+03 
708.673  1.84800000e+03 
708.638  1.72900000e+03 
708.602  1.77400000e+03 
708.566  1.79400000e+03 
708.530  1.72100000e+03 
708.494  1.77800000e+03 
708.458  1.76600000e+03 
708.422  1.77600000e+03 
708.386  1.81800000e+03 
708.350  1.77600000e+03 
708.314  1.82700000e+03 
708.278  1.84700000e+03 
708.242  1.75700000e+03 
708.206  1.82700000e+03 
708.170  1.78700000e+03 
708.134  1.85800000e+03 
708.098  1.77000000e+03 
708.062  1.78500000e+03 
708.027  1.73900000e+03 
707.991  1.83000000e+03 
707.955  1.75700000e+03 
707.919  1.82000000e+03 
707.883  1.82000000e+03 
707.847  1.76300000e+03 
707.811  1.76600000e+03 
707.775  1.79600000e+03 
707.739  1.77200000e+03 
707.703  1.81500000e+03 
707.667  1.76500000e+03 
707.631  1.78900000e+03 
707.595  1.87400000e+03 
707.559  1.78800000e+03 
707.523  1.73800000e+03 
707.488  1.74500000e+03 
707.452  1.82200000e+03 
707.416  1.77100000e+03 
707.380  1.67300000e+03 
707.344  1.74100000e+03 
707.308  1.73300000e+03 
707.272  1.72900000e+03 
707.236  1.80200000e+03 
707.200  1.80300000e+03 
707.164  1.73700000e+03 
707.128  1.76400000e+03 
707.092  1.76300000e+03 
707.056  1.72500000e+03 
707.020  1.76600000e+03 
706.984  1.80300000e+03 
706.948  1.80600000e+03 
706.913  1.79000000e+03 
706.877  1.78600000e+03 
706.841  1.74400000e+03 
706.805  1.83200000e+03 
706.769  1.80700000e+03 
706.733  1.67800000e+03 
706.697  1.76100000e+03 
706.661  1.80100000e+03 
706.625  1.79800000e+03 
706.589  1.74600000e+03 
706.553  1.76400000e+03 
706.517  1.76300000e+03 
706.481  1.81100000e+03 
706.445  1.80800000e+03 
706.409  1.76800000e+03 
706.373  1.80200000e+03 
706.338  1.73700000e+03 
706.302  1.70700000e+03 
706.266  1.85300000e+03 
706.230  1.71900000e+03 
706.194  1.89200000e+03 
706.158  1.83500000e+03 
706.122  1.80100000e+03 
706.086  1.78400000e+03 
706.050  1.83200000e+03 
706.014  1.86100000e+03 
705.978  1.70800000e+03 
705.942  1.81000000e+03 
705.906  1.80200000e+03 
705.870  1.66200000e+03 
705.834  1.74600000e+03 
705.798  1.74400000e+03 
705.763  1.85900000e+03 
705.727  1.77900000e+03 
705.691  1.77000000e+03 
705.655  1.85700000e+03 
705.619  1.82600000e+03 
705.583  1.73600000e+03 
705.547  1.77300000e+03 
705.511  1.80700000e+03 
705.475  1.82700000e+03 
705.439  1.70100000e+03 
705.403  1.79700000e+03 
705.367  1.79400000e+03 
705.331  1.68300000e+03 
705.295  1.80100000e+03 
705.259  1.83200000e+03 
705.223  1.74100000e+03 
705.188  1.84000000e+03 
705.152  1.70000000e+03 
705.116  1.77200000e+03 
705.080  1.81500000e+03 
705.044  1.76300000e+03 
705.008  1.80300000e+03 
704.972  1.85000000e+03 
704.936  1.71900000e+03 
704.900  1.84900000e+03 
704.864  1.80900000e+03 
704.828  1.80100000e+03 
704.792  1.75200000e+03 
704.756  1.80200000e+03 
704.720  1.77000000e+03 
704.684  1.76200000e+03 
704.648  1.72700000e+03 
704.613  1.78400000e+03 
704.577  1.88700000e+03 
704.541  1.77400000e+03 
704.505  1.84700000e+03 
704.469  1.74900000e+03 
704.433  1.74000000e+03 
704.397  1.80000000e+03 
704.361  1.72100000e+03 
704.325  1.89000000e+03 
704.289  1.82700000e+03 
704.253  1.79900000e+03 
704.217  1.86300000e+03 
704.181  1.80200000e+03 
704.145  1.78400000e+03 
704.109  1.70800000e+03 
704.073  1.78400000e+03 
704.038  1.81900000e+03 
704.002  1.79300000e+03 
703.966  1.88100000e+03 
703.930  1.75700000e+03 
703.894  1.75400000e+03 
703.858  1.74600000e+03 
703.822  1.75000000e+03 
703.786  1.76400000e+03 
703.750  1.77800000e+03 
703.714  1.75000000e+03 
703.678  1.83300000e+03 
703.642  1.79800000e+03 
703.606  1.81400000e+03 
703.570  1.84100000e+03 
703.534  1.82700000e+03 
703.498  1.85700000e+03 
703.463  1.83600000e+03 
703.427  1.84300000e+03 
703.391  1.86300000e+03 
703.355  1.88300000e+03 
703.319  1.85800000e+03 
703.283  1.78300000e+03 
703.247  1.78200000e+03 
703.211  1.82200000e+03 
703.175  1.84600000e+03 
703.139  1.73100000e+03 
703.103  1.82500000e+03 
703.067  1.77100000e+03 
703.031  1.77800000e+03 
702.995  1.79200000e+03 
702.959  1.79400000e+03 
702.923  1.80600000e+03 
702.888  1.87500000e+03 
702.852  1.76300000e+03 
702.816  1.76400000e+03 
702.780  1.76200000e+03 
702.744  1.82200000e+03 
702.708  1.76600000e+03 
702.672  1.79200000e+03 
702.636  1.76600000e+03 
702.600  1.80300000e+03 
702.564  1.81000000e+03 
702.528  1.77000000e+03 
702.492  1.82800000e+03 
702.456  1.73600000e+03 
702.420  1.90500000e+03 
702.384  1.81100000e+03 
702.348  1.71300000e+03 
702.312  1.83200000e+03 
702.277  1.74800000e+03 
702.241  1.74100000e+03 
702.205  1.82100000e+03 
702.169  1.77900000e+03 
702.133  1.79600000e+03 
702.097  1.79500000e+03 
702.061  1.86100000e+03 
702.025  1.78200000e+03 
701.989  1.75500000e+03 
701.953  1.79900000e+03 
701.917  1.81900000e+03 
701.881  1.83800000e+03 
701.845  1.84500000e+03 
701.809  1.75200000e+03 
701.773  1.75000000e+03 
701.738  1.83200000e+03 
701.702  1.82600000e+03 
701.666  1.84800000e+03 
701.630  1.76500000e+03 
701.594  1.78400000e+03 
701.558  1.81600000e+03 
701.522  1.78500000e+03 
701.486  1.76200000e+03 
701.450  1.79700000e+03 
701.414  1.77300000e+03 
701.378  1.83000000e+03 
701.342  1.75400000e+03 
701.306  1.87300000e+03 
701.270  1.77000000e+03 
701.234  1.83200000e+03 
701.198  1.88400000e+03 
701.163  1.78500000e+03 
701.127  1.87000000e+03 
701.091  1.90800000e+03 
701.055  1.80100000e+03 
701.019  1.86900000e+03 
700.983  1.81900000e+03 
700.947  1.90800000e+03 
700.911  1.80500000e+03 
700.875  1.81000000e+03 
700.839  1.77800000e+03 
700.803  1.77700000e+03 
700.767  1.80700000e+03 
700.731  1.76800000e+03 
700.695  1.70900000e+03 
700.659  1.75700000e+03 
700.623  1.80500000e+03 
700.588  1.77900000e+03 
700.552  1.79300000e+03 
700.516  1.81000000e+03 
700.480  1.85800000e+03 
700.444  1.92500000e+03 
700.408  1.84100000e+03 
700.372  1.87500000e+03 
700.336  1.72800000e+03 
700.300  1.74300000e+03 
700.264  1.78200000e+03 
700.228  1.72900000e+03 
700.192  1.80300000e+03 
700.156  1.78900000e+03 
700.120  1.87900000e+03 
700.084  1.76300000e+03 
700.048  1.84800000e+03 
700.013  1.79400000e+03 
699.977  1.81700000e+03 
699.941  1.84500000e+03 
699.905  1.77300000e+03 
699.869  1.75900000e+03 
699.833  1.79200000e+03 
699.797  1.80200000e+03 
699.761  1.84100000e+03 
699.725  1.81300000e+03 
699.689  1.87000000e+03 
699.653  1.78000000e+03 
699.617  1.80100000e+03 
699.581  1.75800000e+03 
699.545  1.84700000e+03 
699.509  1.81700000e+03 
699.473  1.82000000e+03 
699.438  1.77200000e+03 
699.402  1.74100000e+03 
699.366  1.80400000e+03 
699.330  1.81100000e+03 
699.294  1.78300000e+03 
699.258  1.79000000e+03 
699.222  1.79800000e+03 
699.186  1.81300000e+03 
699.150  1.82900000e+03 
699.114  1.78700000e+03 
699.078  1.84700000e+03 
699.042  1.79200000e+03 
699.006  1.84900000e+03 
698.970  1.72600000e+03 
698.934  1.83600000e+03 
698.898  1.76200000e+03 
698.863  1.74800000e+03 
698.827  1.85600000e+03 
698.791  1.81200000e+03 
698.755  1.73600000e+03 
698.719  1.78900000e+03 
698.683  1.77300000e+03 
698.647  1.79500000e+03 
698.611  1.67100000e+03 
698.575  1.77300000e+03 
698.539  1.80700000e+03 
698.503  1.79200000e+03 
698.467  1.83900000e+03 
698.431  1.78400000e+03 
698.395  1.73100000e+03 
698.359  1.70700000e+03 
698.323  1.87800000e+03 
698.288  1.82400000e+03 
698.252  1.78200000e+03 
698.216  1.85300000e+03 
698.180  1.82400000e+03 
698.144  1.80700000e+03 
698.108  1.82000000e+03 
698.072  1.83700000e+03 
698.036  1.86400000e+03 
698.000  1.85300000e+03 
697.964  1.76300000e+03 
697.928  1.82900000e+03 
697.892  1.86600000e+03 
697.856  1.80400000e+03 
697.820  1.72900000e+03 
697.784  1.85500000e+03 
697.748  1.74100000e+03 
697.713  1.82300000e+03 
697.677  1.80900000e+03 
697.641  1.80200000e+03 
697.605  1.79800000e+03 
697.569  1.79000000e+03 
697.533  1.79800000e+03 
697.497  1.82300000e+03 
697.461  1.84100000e+03 
697.425  1.81700000e+03 
697.389  1.76100000e+03 
697.353  1.81800000e+03 
697.317  1.81300000e+03 
697.281  1.83000000e+03 
697.245  1.79900000e+03 
697.209  1.80100000e+03 
697.173  1.85900000e+03 
697.138  1.79300000e+03 
697.102  1.78300000e+03 
697.066  1.77800000e+03 
697.030  1.77100000e+03 
696.994  1.80400000e+03 
696.958  1.87300000e+03 
696.922  1.77800000e+03 
696.886  1.82600000e+03 
696.850  1.86200000e+03 
696.814  1.82600000e+03 
696.778  1.83500000e+03 
696.742  1.81800000e+03 
696.706  1.74900000e+03 
696.670  1.80600000e+03 
696.634  1.84100000e+03 
696.598  1.85900000e+03 
696.562  1.83300000e+03 
696.527  1.73400000e+03 
696.491  1.80000000e+03 
696.455  1.85900000e+03 
696.419  1.76000000e+03 
696.383  1.77500000e+03 
696.347  1.81300000e+03 
696.311  1.87900000e+03 
696.275  1.78100000e+03 
696.239  1.83500000e+03 
696.203  1.85000000e+03 
696.167  1.78400000e+03 
696.131  1.86000000e+03 
696.095  1.82800000e+03 
696.059  1.76700000e+03 
696.023  1.91700000e+03 
695.988  1.86200000e+03 
695.952  1.88600000e+03 
695.916  1.82800000e+03 
695.880  1.77900000e+03 
695.844  1.86600000e+03 
695.808  1.75300000e+03 
695.772  1.85800000e+03 
695.736  1.80300000e+03 
695.700  1.87200000e+03 
695.664  1.82600000e+03 
695.628  1.81600000e+03 
695.592  1.89100000e+03 
695.556  1.80700000e+03 
695.520  1.78300000e+03 
695.484  1.77100000e+03 
695.448  1.80600000e+03 
695.413  1.77100000e+03 
695.377  1.87200000e+03 
695.341  1.78300000e+03 
695.305  1.84700000e+03 
695.269  1.80600000e+03 
695.233  1.82900000e+03 
695.197  1.80200000e+03 
695.161  1.78300000e+03 
695.125  1.82000000e+03 
695.089  1.77900000e+03 
695.053  1.92400000e+03 
695.017  1.83800000e+03 
694.981  1.78200000e+03 
694.945  1.82500000e+03 
694.909  1.77100000e+03 
694.873  1.81200000e+03 
694.838  1.86700000e+03 
694.802  1.73700000e+03 
694.766  1.87000000e+03 
694.730  1.84500000e+03 
694.694  1.75700000e+03 
694.658  1.82500000e+03 
694.622  1.81500000e+03 
694.586  1.82500000e+03 
694.550  1.87500000e+03 
694.514  1.81100000e+03 
694.478  1.85600000e+03 
694.442  1.83400000e+03 
694.406  1.72000000e+03 
694.370  1.84800000e+03 
694.334  1.79000000e+03 
694.298  1.86800000e+03 
694.263  1.76800000e+03 
694.227  1.76600000e+03 
694.191  1.83600000e+03 
694.155  1.82500000e+03 
694.119  1.73300000e+03 
694.083  1.82200000e+03 
694.047  1.77600000e+03 
694.011  1.82600000e+03 
693.975  1.80500000e+03 
693.939  1.86600000e+03 
693.903  1.81200000e+03 
693.867  1.81200000e+03 
693.831  1.84100000e+03 
693.795  1.78500000e+03 
693.759  1.78500000e+03 
693.723  1.80100000e+03 
693.688  1.86300000e+03 
693.652  1.78500000e+03 
693.616  1.80200000e+03 
693.580  1.83900000e+03 
693.544  1.85100000e+03 
693.508  1.83800000e+03 
693.472  1.79000000e+03 
693.436  1.75400000e+03 
693.400  1.79400000e+03 
693.364  1.85500000e+03 
693.328  1.82000000e+03 
693.292  1.84400000e+03 
693.256  1.85800000e+03 
693.220  1.90600000e+03 
693.184  1.77400000e+03 
693.148  1.83900000e+03 
693.113  1.84600000e+03 
693.077  1.84700000e+03 
693.041  1.81200000e+03 
693.005  1.83200000e+03 
692.969  1.74500000e+03 
692.933  1.75000000e+03 
692.897  1.86000000e+03 
692.861  1.80600000e+03 
692.825  1.83400000e+03 
692.789  1.82400000e+03 
692.753  1.88300000e+03 
692.717  1.78800000e+03 
692.681  1.77500000e+03 
692.645  1.86900000e+03 
692.609  1.88300000e+03 
692.573  1.84300000e+03 
692.538  1.81200000e+03 
692.502  1.91400000e+03 
692.466  1.86600000e+03 
692.430  1.81400000e+03 
692.394  1.86500000e+03 
692.358  1.85400000e+03 
692.322  1.83700000e+03 
692.286  1.88200000e+03 
692.250  1.79300000e+03 
692.214  1.75700000e+03 
692.178  1.81500000e+03 
692.142  1.79700000e+03 
692.106  1.82500000e+03 
692.070  1.85500000e+03 
692.034  1.84500000e+03 
691.998  1.86900000e+03 
691.963  1.82900000e+03 
691.927  1.80300000e+03 
691.891  1.77100000e+03 
691.855  1.85500000e+03 
691.819  1.81700000e+03 
691.783  1.90500000e+03 
691.747  1.78900000e+03 
691.711  1.76500000e+03 
691.675  1.71600000e+03 
691.639  1.83500000e+03 
691.603  1.83100000e+03 
691.567  1.85600000e+03 
691.531  1.81100000e+03 
691.495  1.79300000e+03 
691.459  1.80000000e+03 
691.423  1.74300000e+03 
691.388  1.87500000e+03 
691.352  1.83500000e+03 
691.316  1.81900000e+03 
691.280  1.82900000e+03 
691.244  1.70800000e+03 
691.208  1.84400000e+03 
691.172  1.81100000e+03 
691.136  1.84600000e+03 
691.100  1.76500000e+03 
691.064  1.84800000e+03 
691.028  1.79400000e+03 
690.992  1.86500000e+03 
690.956  1.85700000e+03 
690.920  1.86300000e+03 
690.884  1.84800000e+03 
690.848  1.78000000e+03 
690.812  1.84800000e+03 
690.777  1.83000000e+03 
690.741  1.84000000e+03 
690.705  1.83200000e+03 
690.669  1.83100000e+03 
690.633  1.79400000e+03 
690.597  1.80600000e+03 
690.561  1.80400000e+03 
690.525  1.84800000e+03 
690.489  1.76400000e+03 
690.453  1.75500000e+03 
690.417  1.78900000e+03 
690.381  1.83800000e+03 
690.345  1.86800000e+03 
690.309  1.80500000e+03 
690.273  1.78900000e+03 
690.238  1.88300000e+03 
690.202  1.81900000e+03 
690.166  1.80700000e+03 
690.130  1.86000000e+03 
690.094  1.82700000e+03 
690.058  1.82400000e+03 
690.022  1.83700000e+03 
689.986  1.78500000e+03 
689.950  1.84600000e+03 
689.914  1.81000000e+03 
689.878  1.82400000e+03 
689.842  1.77000000e+03 
689.806  1.79000000e+03 
689.770  1.84700000e+03 
689.734  1.81100000e+03 
689.698  1.78900000e+03 
689.663  1.75600000e+03 
689.627  1.83000000e+03 
689.591  1.76700000e+03 
689.555  1.85400000e+03 
689.519  1.80500000e+03 
689.483  1.75200000e+03 
689.447  1.80700000e+03 
689.411  1.89100000e+03 
689.375  1.82300000e+03 
689.339  1.86500000e+03 
689.303  1.86900000e+03 
689.267  1.81700000e+03 
689.231  1.81000000e+03 
689.195  1.78900000e+03 
689.159  1.91300000e+03 
689.123  1.79300000e+03 
689.088  1.90800000e+03 
689.052  1.89600000e+03 
689.016  1.84900000e+03 
688.980  1.85400000e+03 
688.944  1.80600000e+03 
688.908  1.81900000e+03 
688.872  1.79800000e+03 
688.836  1.90800000e+03 
688.800  1.84400000e+03 
688.764  1.82300000e+03 
688.728  1.83200000e+03 
688.692  1.80800000e+03 
688.656  1.76600000e+03 
688.620  1.81400000e+03 
688.584  1.79500000e+03 
688.548  1.85300000e+03 
688.513  1.86800000e+03 
688.477  1.85900000e+03 
688.441  1.88100000e+03 
688.405  1.81500000e+03 
688.369  1.81200000e+03 
688.333  1.75500000e+03 
688.297  1.89800000e+03 
688.261  1.81500000e+03 
688.225  1.79000000e+03 
688.189  1.80100000e+03 
688.153  1.84700000e+03 
688.117  1.83800000e+03 
688.081  1.82100000e+03 
688.045  1.83600000e+03 
688.009  1.79000000e+03 
687.973  1.78800000e+03 
687.938  1.77800000e+03 
687.902  1.78800000e+03 
687.866  1.81500000e+03 
687.830  1.83100000e+03 
687.794  1.82800000e+03 
687.758  1.86100000e+03 
687.722  1.79200000e+03 
687.686  1.79700000e+03 
687.650  1.89900000e+03 
687.614  1.78700000e+03 
687.578  1.88600000e+03 
687.542  1.79800000e+03 
687.506  1.83800000e+03 
687.470  1.82500000e+03 
687.434  1.78200000e+03 
687.398  1.77800000e+03 
687.363  1.74300000e+03 
687.327  1.78900000e+03 
687.291  1.82200000e+03 
687.255  1.87400000e+03 
687.219  1.90900000e+03 
687.183  1.80000000e+03 
687.147  1.72900000e+03 
687.111  1.86400000e+03 
687.075  1.83300000e+03 
687.039  1.93300000e+03 
687.003  1.82100000e+03 
686.967  1.84300000e+03 
686.931  1.87300000e+03 
686.895  1.82600000e+03 
686.859  1.82200000e+03 
686.823  1.82500000e+03 
686.788  1.76200000e+03 
686.752  1.89600000e+03 
686.716  1.82600000e+03 
686.680  1.84400000e+03 
686.644  1.80900000e+03 
686.608  1.84700000e+03 
686.572  1.81200000e+03 
686.536  1.80800000e+03 
686.500  1.87900000e+03 
686.464  1.84100000e+03 
686.428  1.92300000e+03 
686.392  1.77600000e+03 
686.356  1.74300000e+03 
686.320  1.87400000e+03 
686.284  1.77900000e+03 
686.248  1.84000000e+03 
686.213  1.84400000e+03 
686.177  1.90700000e+03 
686.141  1.77800000e+03 
686.105  1.91100000e+03 
686.069  1.84300000e+03 
686.033  1.85700000e+03 
685.997  1.88900000e+03 
685.961  1.85100000e+03 
685.925  1.80000000e+03 
685.889  1.82000000e+03 
685.853  1.81400000e+03 
685.817  1.84700000e+03 
685.781  1.81200000e+03 
685.745  1.88300000e+03 
685.709  1.74100000e+03 
685.673  1.84700000e+03 
685.638  1.84500000e+03 
685.602  1.83100000e+03 
685.566  1.81900000e+03 
685.530  1.84600000e+03 
685.494  1.81600000e+03 
685.458  1.83700000e+03 
685.422  1.86300000e+03 
685.386  1.80900000e+03 
685.350  1.84200000e+03 
685.314  1.77800000e+03 
685.278  1.89300000e+03 
685.242  1.85100000e+03 
685.206  1.80100000e+03 
685.170  1.79600000e+03 
685.134  1.79000000e+03 
685.098  1.94100000e+03 
685.062  1.81100000e+03 
685.027  1.82900000e+03 
684.991  1.84100000e+03 
684.955  1.81700000e+03 
684.919  1.81400000e+03 
684.883  1.94700000e+03 
684.847  1.88700000e+03 
684.811  1.84500000e+03 
684.775  1.81700000e+03 
684.739  1.78700000e+03 
684.703  1.83400000e+03 
684.667  1.82000000e+03 
684.631  1.87000000e+03 
684.595  1.82900000e+03 
684.559  1.81500000e+03 
684.523  1.76200000e+03 
684.488  1.86300000e+03 
684.452  1.86600000e+03 
684.416  1.76300000e+03 
684.380  1.78000000e+03 
684.344  1.76000000e+03 
684.308  1.87900000e+03 
684.272  1.84800000e+03 
684.236  1.86500000e+03 
684.200  1.83900000e+03 
684.164  1.81900000e+03 
684.128  1.82700000e+03 
684.092  1.93500000e+03 
684.056  1.81600000e+03 
684.020  1.79700000e+03 
683.984  1.84900000e+03 
683.948  1.77100000e+03 
683.913  1.79400000e+03 
683.877  1.84500000e+03 
683.841  1.79200000e+03 
683.805  1.83600000e+03 
683.769  1.84100000e+03 
683.733  1.85600000e+03 
683.697  1.78800000e+03 
683.661  1.86500000e+03 
683.625  1.85700000e+03 
683.589  1.85900000e+03 
683.553  1.85400000e+03 
683.517  1.88200000e+03 
683.481  1.85800000e+03 
683.445  1.91100000e+03 
683.409  1.89600000e+03 
683.373  1.78000000e+03 
683.338  1.84300000e+03 
683.302  1.89000000e+03 
683.266  1.86400000e+03 
683.230  1.82900000e+03 
683.194  1.81300000e+03 
683.158  1.83400000e+03 
683.122  1.80200000e+03 
683.086  1.87500000e+03 
683.050  1.74300000e+03 
683.014  1.86600000e+03 
682.978  1.83300000e+03 
682.942  1.91300000e+03 
682.906  1.82600000e+03 
682.870  1.86600000e+03 
682.834  1.76800000e+03 
682.798  1.87100000e+03 
682.763  1.89600000e+03 
682.727  1.78800000e+03 
682.691  1.85800000e+03 
682.655  1.86700000e+03 
682.619  1.85400000e+03 
682.583  1.85200000e+03 
682.547  1.81700000e+03 
682.511  1.77800000e+03 
682.475  1.84100000e+03 
682.439  1.89200000e+03 
682.403  1.87800000e+03 
682.367  1.89800000e+03 
682.331  1.90000000e+03 
682.295  1.85900000e+03 
682.259  1.78600000e+03 
682.223  1.83900000e+03 
682.188  1.85800000e+03 
682.152  1.82300000e+03 
682.116  1.86500000e+03 
682.080  1.83500000e+03 
682.044  1.86800000e+03 
682.008  1.78500000e+03 
681.972  1.85900000e+03 
681.936  1.80800000e+03 
681.900  1.87400000e+03 
681.864  1.79600000e+03 
681.828  1.77000000e+03 
681.792  1.83400000e+03 
681.756  1.77100000e+03 
681.720  1.83800000e+03 
681.684  1.83300000e+03 
681.648  1.89100000e+03 
681.613  1.76200000e+03 
681.577  1.89600000e+03 
681.541  1.83500000e+03 
681.505  1.80300000e+03 
681.469  1.88000000e+03 
681.433  1.83800000e+03 
681.397  1.84600000e+03 
681.361  1.82000000e+03 
681.325  1.78300000e+03 
681.289  1.79700000e+03 
681.253  1.91600000e+03 
681.217  1.93600000e+03 
681.181  1.84400000e+03 
681.145  1.84900000e+03 
681.109  1.84900000e+03 
681.073  1.82900000e+03 
681.038  1.89500000e+03 
681.002  1.82600000e+03 
680.966  1.87300000e+03 
680.930  1.88100000e+03 
680.894  1.82700000e+03 
680.858  1.88400000e+03 
680.822  1.80700000e+03 
680.786  1.85400000e+03 
680.750  1.82700000e+03 
680.714  1.81500000e+03 
680.678  1.84800000e+03 
680.642  1.94900000e+03 
680.606  1.87300000e+03 
680.570  1.86500000e+03 
680.534  1.77200000e+03 
680.498  1.91700000e+03 
680.463  1.82100000e+03 
680.427  1.87200000e+03 
680.391  1.87200000e+03 
680.355  1.77400000e+03 
680.319  1.85100000e+03 
680.283  1.83600000e+03 
680.247  1.79800000e+03 
680.211  1.90100000e+03 
680.175  1.80700000e+03 
680.139  1.81900000e+03 
680.103  1.88300000e+03 
680.067  1.84300000e+03 
680.031  1.86300000e+03 
679.995  1.84300000e+03 
679.959  1.83100000e+03 
679.923  1.86700000e+03 
679.888  1.81100000e+03 
679.852  1.85400000e+03 
679.816  1.84200000e+03 
679.780  1.83800000e+03 
679.744  1.85800000e+03 
679.708  1.83300000e+03 
679.672  1.86500000e+03 
679.636  1.79800000e+03 
679.600  1.86300000e+03 
679.564  1.87300000e+03 
679.528  1.82200000e+03 
679.492  1.85200000e+03 
679.456  1.78200000e+03 
679.420  1.78600000e+03 
679.384  1.91300000e+03 
679.348  1.86900000e+03 
679.312  1.84300000e+03 
679.277  1.91900000e+03 
679.241  1.78000000e+03 
679.205  1.88100000e+03 
679.169  1.89600000e+03 
679.133  1.87200000e+03 
679.097  1.88300000e+03 
679.061  1.84100000e+03 
679.025  1.87800000e+03 
678.989  1.92600000e+03 
678.953  1.91400000e+03 
678.917  1.80000000e+03 
678.881  1.85400000e+03 
678.845  1.87400000e+03 
678.809  1.88300000e+03 
678.773  1.82300000e+03 
678.738  1.90800000e+03 
678.702  1.89500000e+03 
678.666  1.90400000e+03 
678.630  1.76800000e+03 
678.594  1.90000000e+03 
678.558  1.80600000e+03 
678.522  1.85600000e+03 
678.486  1.89100000e+03 
678.450  1.88200000e+03 
678.414  1.83900000e+03 
678.378  1.82500000e+03 
678.342  1.91200000e+03 
678.306  1.86700000e+03 
678.270  1.81400000e+03 
678.234  1.81900000e+03 
678.198  1.84900000e+03 
678.163  1.87500000e+03 
678.127  1.80100000e+03 
678.091  1.82800000e+03 
678.055  1.85900000e+03 
678.019  1.85600000e+03 
677.983  1.82200000e+03 
677.947  1.88800000e+03 
677.911  1.85100000e+03 
677.875  1.80500000e+03 
677.839  1.83500000e+03 
677.803  1.79200000e+03 
677.767  1.83600000e+03 
677.731  1.88700000e+03 
677.695  1.75600000e+03 
677.659  1.89500000e+03 
677.623  1.86000000e+03 
677.588  1.86000000e+03 
677.552  1.82000000e+03 
677.516  1.84200000e+03 
677.480  1.83500000e+03 
677.444  1.85100000e+03 
677.408  1.83100000e+03 
677.372  1.90600000e+03 
677.336  1.81500000e+03 
677.300  1.84400000e+03 
677.264  1.82800000e+03 
677.228  1.84200000e+03 
677.192  1.85200000e+03 
677.156  1.86000000e+03 
677.120  1.83400000e+03 
677.084  1.80800000e+03 
677.048  1.77600000e+03 
677.013  1.85700000e+03 
676.977  1.83300000e+03 
676.941  1.91200000e+03 
676.905  1.80900000e+03 
676.869  1.88600000e+03 
676.833  1.88800000e+03 
676.797  1.89300000e+03 
676.761  1.84700000e+03 
676.725  1.90400000e+03 
676.689  1.90400000e+03 
676.653  1.84000000e+03 
676.617  1.83900000e+03 
676.581  1.89200000e+03 
676.545  1.83800000e+03 
676.509  1.91300000e+03 
676.473  1.81700000e+03 
676.438  1.81000000e+03 
676.402  1.94000000e+03 
676.366  1.82500000e+03 
676.330  1.83700000e+03 
676.294  1.82400000e+03 
676.258  1.87100000e+03 
676.222  1.89400000e+03 
676.186  1.78400000e+03 
676.150  1.82500000e+03 
676.114  1.78700000e+03 
676.078  1.90800000e+03 
676.042  1.82100000e+03 
676.006  1.85100000e+03 
675.970  1.82600000e+03 
675.934  1.87300000e+03 
675.898  1.88500000e+03 
675.863  1.84300000e+03 
675.827  1.86000000e+03 
675.791  1.92700000e+03 
675.755  1.85700000e+03 
675.719  1.87100000e+03 
675.683  1.90400000e+03 
675.647  1.83000000e+03 
675.611  1.92200000e+03 
675.575  1.91400000e+03 
675.539  1.81700000e+03 
675.503  1.95200000e+03 
675.467  1.84900000e+03 
675.431  1.83200000e+03 
675.395  1.80100000e+03 
675.359  1.92800000e+03 
675.323  1.85000000e+03 
675.288  1.88700000e+03 
675.252  1.85700000e+03 
675.216  1.92400000e+03 
675.180  1.79200000e+03 
675.144  1.81900000e+03 
675.108  1.86300000e+03 
675.072  1.87400000e+03 
675.036  1.85300000e+03 
675.000  1.89300000e+03 
674.964  1.91500000e+03 
674.928  1.83200000e+03 
674.892  1.79700000e+03 
674.856  1.93400000e+03 
674.820  1.84600000e+03 
674.784  1.80300000e+03 
674.748  1.90100000e+03 
674.713  1.82000000e+03 
674.677  1.86900000e+03 
674.641  1.88400000e+03 
674.605  1.80300000e+03 
674.569  1.85700000e+03 
674.533  1.91300000e+03 
674.497  1.93000000e+03 
674.461  1.86900000e+03 
674.425  1.86400000e+03 
674.389  1.80800000e+03 
674.353  1.84300000e+03 
674.317  1.90000000e+03 
674.281  1.75400000e+03 
674.245  1.85400000e+03 
674.209  1.77900000e+03 
674.173  1.82600000e+03 
674.138  1.87200000e+03 
674.102  1.88700000e+03 
674.066  1.90200000e+03 
674.030  1.81300000e+03 
673.994  1.92300000e+03 
673.958  1.97000000e+03 
673.922  1.91900000e+03 
673.886  1.85900000e+03 
673.850  1.82100000e+03 
673.814  1.81600000e+03 
673.778  1.88600000e+03 
673.742  1.86400000e+03 
673.706  1.82900000e+03 
673.670  1.83300000e+03 
673.634  1.87400000e+03 
673.598  1.80700000e+03 
673.563  1.88800000e+03 
673.527  1.82200000e+03 
673.491  1.87000000e+03 
673.455  1.86400000e+03 
673.419  1.90000000e+03 
673.383  1.93300000e+03 
673.347  1.87800000e+03 
673.311  1.82800000e+03 
673.275  1.89600000e+03 
673.239  1.91200000e+03 
673.203  1.93200000e+03 
673.167  1.95200000e+03 
673.131  1.91100000e+03 
673.095  1.85000000e+03 
673.059  1.87700000e+03 
673.023  1.86800000e+03 
672.988  1.77900000e+03 
672.952  1.88300000e+03 
672.916  1.90700000e+03 
672.880  1.81700000e+03 
672.844  1.81500000e+03 
672.808  1.79900000e+03 
672.772  1.92800000e+03 
672.736  1.90100000e+03 
672.700  1.90400000e+03 
672.664  1.83900000e+03 
672.628  1.88900000e+03 
672.592  1.81400000e+03 
672.556  1.92300000e+03 
672.520  1.90200000e+03 
672.484  1.80200000e+03 
672.448  1.83600000e+03 
672.413  1.86100000e+03 
672.377  1.93500000e+03 
672.341  1.90300000e+03 
672.305  1.84800000e+03 
672.269  1.92400000e+03 
672.233  1.87700000e+03 
672.197  1.82400000e+03 
672.161  1.83100000e+03 
672.125  1.81800000e+03 
672.089  1.84700000e+03 
672.053  1.90400000e+03 
672.017  1.81100000e+03 
671.981  1.84800000e+03 
671.945  1.80900000e+03 
671.909  1.85500000e+03 
671.873  1.81100000e+03 
671.838  1.92500000e+03 
671.802  1.86100000e+03 
671.766  1.95000000e+03 
671.730  1.83200000e+03 
671.694  1.82900000e+03 
671.658  1.94900000e+03 
671.622  1.87800000e+03 
671.586  1.93000000e+03 
671.550  1.83000000e+03 
671.514  1.79100000e+03 
671.478  1.77700000e+03 
671.442  1.87700000e+03 
671.406  1.85700000e+03 
671.370  1.82100000e+03 
671.334  1.82200000e+03 
671.298  1.89700000e+03 
671.263  1.84200000e+03 
671.227  1.76500000e+03 
671.191  1.91100000e+03 
671.155  1.79800000e+03 
671.119  1.83400000e+03 
671.083  1.90000000e+03 
671.047  1.91600000e+03 
671.011  1.87000000e+03 
670.975  1.87000000e+03 
670.939  1.86800000e+03 
670.903  1.92700000e+03 
670.867  1.84200000e+03 
670.831  1.89900000e+03 
670.795  1.88600000e+03 
670.759  1.94300000e+03 
670.723  1.84700000e+03 
670.688  1.89400000e+03 
670.652  1.91100000e+03 
670.616  1.91400000e+03 
670.580  1.85300000e+03 
670.544  1.82900000e+03 
670.508  1.88400000e+03 
670.472  1.87200000e+03 
670.436  1.85400000e+03 
670.400  1.83300000e+03 
670.364  1.81100000e+03 
670.328  1.79600000e+03 
670.292  1.86500000e+03 
670.256  1.91600000e+03 
670.220  1.83300000e+03 
670.184  1.91700000e+03 
670.148  1.86000000e+03 
670.113  1.89300000e+03 
670.077  1.93000000e+03 
670.041  1.83200000e+03 
670.005  1.86700000e+03 
669.969  1.83400000e+03 
669.933  1.86300000e+03 
669.897  1.82400000e+03 
669.861  1.84900000e+03 
669.825  1.87200000e+03 
669.789  1.89000000e+03 
669.753  1.85100000e+03 
669.717  1.79500000e+03 
669.681  1.81600000e+03 
669.645  1.85800000e+03 
669.609  1.85100000e+03 
669.573  1.93500000e+03 
669.538  1.86200000e+03 
669.502  1.89100000e+03 
669.466  1.85600000e+03 
669.430  1.89800000e+03 
669.394  1.91400000e+03 
669.358  1.85300000e+03 
669.322  1.82100000e+03 
669.286  1.80100000e+03 
669.250  1.87800000e+03 
669.214  1.88800000e+03 
669.178  1.87800000e+03 
669.142  1.83100000e+03 
669.106  1.89200000e+03 
669.070  1.83600000e+03 
669.034  1.84500000e+03 
668.998  1.89000000e+03 
668.963  1.84500000e+03 
668.927  1.86300000e+03 
668.891  1.83700000e+03 
668.855  1.85600000e+03 
668.819  1.83900000e+03 
668.783  1.87000000e+03 
668.747  1.91800000e+03 
668.711  1.97800000e+03 
668.675  1.89200000e+03 
668.639  1.87400000e+03 
668.603  1.86100000e+03 
668.567  1.90600000e+03 
668.531  1.87900000e+03 
668.495  1.87000000e+03 
668.459  1.88000000e+03 
668.423  1.82500000e+03 
668.388  1.85700000e+03 
668.352  1.84000000e+03 
668.316  1.81200000e+03 
668.280  1.84300000e+03 
668.244  1.92400000e+03 
668.208  1.86100000e+03 
668.172  1.85800000e+03 
668.136  1.86700000e+03 
668.100  1.91400000e+03 
668.064  1.77800000e+03 
668.028  1.87600000e+03 
667.992  1.89200000e+03 
667.956  1.91500000e+03 
667.920  1.86200000e+03 
667.884  1.88000000e+03 
667.848  1.90300000e+03 
667.813  1.90400000e+03 
667.777  1.90700000e+03 
667.741  1.85100000e+03 
667.705  1.84100000e+03 
667.669  1.86400000e+03 
667.633  1.86700000e+03 
667.597  1.87600000e+03 
667.561  1.86300000e+03 
667.525  1.80100000e+03 
667.489  1.78900000e+03 
667.453  1.86300000e+03 
667.417  1.88600000e+03 
667.381  1.90300000e+03 
667.345  1.87600000e+03 
667.309  1.91000000e+03 
667.273  1.83000000e+03 
667.238  1.83400000e+03 
667.202  1.82600000e+03 
667.166  1.88600000e+03 
667.130  1.87100000e+03 
667.094  1.89500000e+03 
667.058  1.95600000e+03 
667.022  1.86100000e+03 
666.986  1.93600000e+03 
666.950  1.85000000e+03 
666.914  1.81700000e+03 
666.878  1.87700000e+03 
666.842  1.86500000e+03 
666.806  1.89500000e+03 
666.770  1.83100000e+03 
666.734  1.91600000e+03 
666.698  1.80000000e+03 
666.663  1.86600000e+03 
666.627  1.88500000e+03 
666.591  1.87100000e+03 
666.555  1.78400000e+03 
666.519  1.79900000e+03 
666.483  1.90900000e+03 
666.447  1.86100000e+03 
666.411  1.86200000e+03 
666.375  1.86900000e+03 
666.339  1.91900000e+03 
666.303  1.86700000e+03 
666.267  1.83700000e+03 
666.231  1.87000000e+03 
666.195  1.89900000e+03 
666.159  1.85000000e+03 
666.123  1.90200000e+03 
666.088  1.89300000e+03 
666.052  1.79900000e+03 
666.016  1.87800000e+03 
665.980  1.93200000e+03 
665.944  1.89200000e+03 
665.908  1.90700000e+03 
665.872  1.90100000e+03 
665.836  1.87700000e+03 
665.800  1.87700000e+03 
665.764  1.82900000e+03 
665.728  1.84000000e+03 
665.692  1.82200000e+03 
665.656  1.93100000e+03 
665.620  1.94600000e+03 
665.584  1.81100000e+03 
665.548  1.88300000e+03 
665.513  1.91900000e+03 
665.477  1.83200000e+03 
665.441  1.89900000e+03 
665.405  1.87900000e+03 
665.369  1.90300000e+03 
665.333  1.86300000e+03 
665.297  1.90300000e+03 
665.261  1.84500000e+03 
665.225  1.90000000e+03 
665.189  1.88000000e+03 
665.153  1.85000000e+03 
665.117  1.89500000e+03 
665.081  1.86900000e+03 
665.045  1.90800000e+03 
665.009  1.84100000e+03 
664.973  1.91200000e+03 
664.938  1.88100000e+03 
664.902  1.86900000e+03 
664.866  1.79000000e+03 
664.830  1.89600000e+03 
664.794  1.90300000e+03 
664.758  1.91100000e+03 
664.722  1.83000000e+03 
664.686  1.83200000e+03 
664.650  1.83700000e+03 
664.614  1.83400000e+03 
664.578  1.89400000e+03 
664.542  1.92300000e+03 
664.506  1.85400000e+03 
664.470  1.94500000e+03 
664.434  1.96100000e+03 
664.398  1.82600000e+03 
664.363  1.88700000e+03 
664.327  1.91800000e+03 
664.291  1.94400000e+03 
664.255  1.88900000e+03 
664.219  1.79500000e+03 
664.183  1.84200000e+03 
664.147  1.84400000e+03 
664.111  1.96000000e+03 
664.075  1.84900000e+03 
664.039  1.78600000e+03 
664.003  1.88400000e+03 
663.967  1.90800000e+03 
663.931  1.91600000e+03 
663.895  1.86600000e+03 
663.859  1.93300000e+03 
663.823  1.87900000e+03 
663.788  1.89100000e+03 
663.752  1.84000000e+03 
663.716  1.87500000e+03 
663.680  1.88600000e+03 
663.644  1.95300000e+03 
663.608  1.82000000e+03 
663.572  1.86500000e+03 
663.536  1.88600000e+03 
663.500  1.98000000e+03 
663.464  1.86200000e+03 
663.428  1.81600000e+03 
663.392  1.87500000e+03 
663.356  1.88400000e+03 
663.320  1.81000000e+03 
663.284  1.89700000e+03 
663.248  1.94100000e+03 
663.213  1.87600000e+03 
663.177  1.88700000e+03 
663.141  1.83000000e+03 
663.105  1.82700000e+03 
663.069  1.88800000e+03 
663.033  1.80100000e+03 
662.997  1.90400000e+03 
662.961  1.87900000e+03 
662.925  1.91800000e+03 
662.889  1.90600000e+03 
662.853  1.86500000e+03 
662.817  1.82600000e+03 
662.781  1.90500000e+03 
662.745  1.88300000e+03 
662.709  1.90100000e+03 
662.673  1.90400000e+03 
662.638  1.84000000e+03 
662.602  1.92400000e+03 
662.566  1.95500000e+03 
662.530  1.90300000e+03 
662.494  1.93100000e+03 
662.458  1.88000000e+03 
662.422  1.92700000e+03 
662.386  1.85600000e+03 
662.350  1.79100000e+03 
662.314  1.91800000e+03 
662.278  1.83300000e+03 
662.242  1.84300000e+03 
662.206  1.90500000e+03 
662.170  1.92500000e+03 
662.134  1.89500000e+03 
662.098  1.84500000e+03 
662.063  1.90200000e+03 
662.027  1.86200000e+03 
661.991  1.93800000e+03 
661.955  1.89100000e+03 
661.919  1.92000000e+03 
661.883  1.80800000e+03 
661.847  1.80800000e+03 
661.811  1.84100000e+03 
661.775  1.91300000e+03 
661.739  1.88500000e+03 
661.703  1.95800000e+03 
661.667  1.88600000e+03 
661.631  1.86400000e+03 
661.595  1.83000000e+03 
661.559  1.90800000e+03 
661.523  1.91600000e+03 
661.488  1.87200000e+03 
661.452  1.94800000e+03 
661.416  1.83400000e+03 
661.380  1.87100000e+03 
661.344  1.91400000e+03 
661.308  1.85200000e+03 
661.272  1.87700000e+03 
661.236  1.88500000e+03 
661.200  1.85800000e+03 
661.164  1.89500000e+03 
661.128  1.93800000e+03 
661.092  1.88000000e+03 
661.056  1.91800000e+03 
661.020  1.87800000e+03 
660.984  1.95900000e+03 
660.948  1.93500000e+03 
660.913  1.97200000e+03 
660.877  1.95300000e+03 
660.841  1.99500000e+03 
660.805  1.90200000e+03 
660.769  1.82300000e+03 
660.733  1.83200000e+03 
660.697  1.89700000e+03 
660.661  1.96200000e+03 
660.625  1.94300000e+03 
660.589  1.90000000e+03 
660.553  1.89100000e+03 
660.517  1.84100000e+03 
660.481  1.93700000e+03 
660.445  1.93700000e+03 
660.409  1.95100000e+03 
660.373  1.86600000e+03 
660.338  1.77100000e+03 
660.302  1.90400000e+03 
660.266  1.89000000e+03 
660.230  1.81300000e+03 
660.194  1.89000000e+03 
660.158  1.93800000e+03 
660.122  1.85900000e+03 
660.086  1.84200000e+03 
660.050  1.88700000e+03 
660.014  1.92800000e+03 
659.978  1.87300000e+03 
659.942  1.86400000e+03 
659.906  1.87200000e+03 
659.870  1.90100000e+03 
659.834  1.94000000e+03 
659.798  1.88300000e+03 
659.763  1.87000000e+03 
659.727  1.94100000e+03 
659.691  1.82500000e+03 
659.655  1.87300000e+03 
659.619  1.85800000e+03 
659.583  1.88900000e+03 
659.547  1.85600000e+03 
659.511  1.86700000e+03 
659.475  1.94200000e+03 
659.439  1.86200000e+03 
659.403  1.89100000e+03 
659.367  1.87500000e+03 
659.331  1.86600000e+03 
659.295  1.86500000e+03 
659.259  1.96300000e+03 
659.223  1.93100000e+03 
659.188  1.89500000e+03 
659.152  1.76600000e+03 
659.116  1.90500000e+03 
659.080  1.90800000e+03 
659.044  1.90800000e+03 
659.008  1.96500000e+03 
658.972  1.81000000e+03 
658.936  1.86800000e+03 
658.900  1.89100000e+03 
658.864  1.88100000e+03 
658.828  1.89900000e+03 
658.792  1.79700000e+03 
658.756  1.94200000e+03 
658.720  1.89700000e+03 
658.684  1.94600000e+03 
658.648  1.89300000e+03 
658.613  1.88500000e+03 
658.577  1.85400000e+03 
658.541  1.91100000e+03 
658.505  1.84000000e+03 
658.469  1.91300000e+03 
658.433  1.94000000e+03 
658.397  1.85500000e+03 
658.361  1.84700000e+03 
658.325  1.89900000e+03 
658.289  1.83000000e+03 
658.253  1.87700000e+03 
658.217  1.86800000e+03 
658.181  1.89200000e+03 
658.145  1.90400000e+03 
658.109  1.89300000e+03 
658.073  1.90100000e+03 
658.038  1.86600000e+03 
658.002  1.89700000e+03 
657.966  1.81000000e+03 
657.930  1.87800000e+03 
657.894  1.80900000e+03 
657.858  1.91800000e+03 
657.822  1.94600000e+03 
657.786  1.82000000e+03 
657.750  1.90200000e+03 
657.714  1.83000000e+03 
657.678  1.85700000e+03 
657.642  1.82000000e+03 
657.606  1.90400000e+03 
657.570  1.91700000e+03 
657.534  1.85800000e+03 
657.498  1.79300000e+03 
657.463  1.92000000e+03 
657.427  1.84100000e+03 
657.391  1.87000000e+03 
657.355  1.91000000e+03 
657.319  1.86400000e+03 
657.283  1.93400000e+03 
657.247  1.82700000e+03 
657.211  1.90800000e+03 
657.175  1.97700000e+03 
657.139  1.94000000e+03 
657.103  1.95000000e+03 
657.067  1.90800000e+03 
657.031  1.85300000e+03 
656.995  1.95100000e+03 
656.959  1.81800000e+03 
656.923  1.86000000e+03 
656.888  1.85800000e+03 
656.852  1.85900000e+03 
656.816  1.80400000e+03 
656.780  1.82300000e+03 
656.744  1.84600000e+03 
656.708  1.87800000e+03 
656.672  1.84800000e+03 
656.636  1.86900000e+03 
656.600  1.88000000e+03 
656.564  1.88200000e+03 
656.528  1.91400000e+03 
656.492  1.91900000e+03 
656.456  1.85500000e+03 
656.420  1.94700000e+03 
656.384  1.93400000e+03 
656.348  1.81900000e+03 
656.313  1.85500000e+03 
656.277  1.88500000e+03 
656.241  1.96400000e+03 
656.205  1.91100000e+03 
656.169  1.89600000e+03 
656.133  1.88500000e+03 
656.097  1.93000000e+03 
656.061  1.85500000e+03 
656.025  1.90300000e+03 
655.989  1.89800000e+03 
655.953  1.87700000e+03 
655.917  1.89100000e+03 
655.881  1.87200000e+03 
655.845  1.88300000e+03 
655.809  1.87500000e+03 
655.773  1.92600000e+03 
655.738  1.80100000e+03 
655.702  1.90300000e+03 
655.666  1.94800000e+03 
655.630  1.87700000e+03 
655.594  1.88300000e+03 
655.558  1.93500000e+03 
655.522  1.94800000e+03 
655.486  1.94000000e+03 
655.450  1.84100000e+03 
655.414  1.93500000e+03 
655.378  1.86100000e+03 
655.342  1.86400000e+03 
655.306  1.84400000e+03 
655.270  1.85900000e+03 
655.234  1.86200000e+03 
655.198  1.85300000e+03 
655.163  1.88600000e+03 
655.127  1.85600000e+03 
655.091  1.84400000e+03 
655.055  1.90600000e+03 
655.019  1.88600000e+03 
654.983  1.86700000e+03 
654.947  1.91500000e+03 
654.911  1.93900000e+03 
654.875  1.77000000e+03 
654.839  1.95700000e+03 
654.803  1.96900000e+03 
654.767  1.82500000e+03 
654.731  1.78300000e+03 
654.695  1.88200000e+03 
654.659  1.89200000e+03 
654.623  1.84800000e+03 
654.588  1.90200000e+03 
654.552  1.80900000e+03 
654.516  1.87200000e+03 
654.480  1.85900000e+03 
654.444  1.89800000e+03 
654.408  1.86700000e+03 
654.372  1.86000000e+03 
654.336  1.91100000e+03 
654.300  1.83200000e+03 
654.264  1.86600000e+03 
654.228  1.96400000e+03 
654.192  1.89700000e+03 
654.156  1.92600000e+03 
654.120  1.80500000e+03 
654.084  1.87900000e+03 
654.048  1.96700000e+03 
654.013  1.96700000e+03 
653.977  1.93000000e+03 
653.941  1.93100000e+03 
653.905  1.82200000e+03 
653.869  1.90600000e+03 
653.833  1.82600000e+03 
653.797  1.91200000e+03 
653.761  1.85400000e+03 
653.725  1.84900000e+03 
653.689  1.83400000e+03 
653.653  1.92500000e+03 
653.617  1.84100000e+03 
653.581  1.91400000e+03 
653.545  1.87300000e+03 
653.509  1.89900000e+03 
653.473  1.88200000e+03 
653.438  1.82900000e+03 
653.402  1.87900000e+03 
653.366  1.80900000e+03 
653.330  1.84400000e+03 
653.294  1.84100000e+03 
653.258  1.89000000e+03 
653.222  1.93400000e+03 
653.186  1.92300000e+03 
653.150  1.89300000e+03 
653.114  1.85100000e+03 
653.078  1.88000000e+03 
653.042  1.91600000e+03 
653.006  1.98900000e+03 
652.970  1.89600000e+03 
652.934  1.91900000e+03 
652.898  1.88500000e+03 
652.863  1.84900000e+03 
652.827  1.89600000e+03 
652.791  1.93300000e+03 
652.755  1.78900000e+03 
652.719  1.87800000e+03 
652.683  1.87500000e+03 
652.647  1.96500000e+03 
652.611  1.80500000e+03 
652.575  1.79100000e+03 
652.539  1.88100000e+03 
652.503  1.87700000e+03 
652.467  1.82800000e+03 
652.431  1.90300000e+03 
652.395  1.91400000e+03 
652.359  2.04000000e+03 
652.323  1.93800000e+03 
652.288  1.80200000e+03 
652.252  1.91800000e+03 
652.216  1.88800000e+03 
652.180  1.90200000e+03 
652.144  1.91400000e+03 
652.108  1.81900000e+03 
652.072  1.94600000e+03 
652.036  1.86200000e+03 
652.000  1.94000000e+03 
651.964  1.89800000e+03 
651.928  1.88200000e+03 
651.892  1.98800000e+03 
651.856  1.84500000e+03 
651.820  1.87600000e+03 
651.784  1.89900000e+03 
651.748  1.89800000e+03 
651.713  1.85400000e+03 
651.677  1.92300000e+03 
651.641  1.92700000e+03 
651.605  1.86700000e+03 
651.569  1.88100000e+03 
651.533  1.89000000e+03 
651.497  1.83000000e+03 
651.461  1.95500000e+03 
651.425  1.93400000e+03 
651.389  1.84900000e+03 
651.353  1.87500000e+03 
651.317  1.85700000e+03 
651.281  1.88000000e+03 
651.245  1.89100000e+03 
651.209  1.78000000e+03 
651.173  1.82600000e+03 
651.138  1.79000000e+03 
651.102  1.79100000e+03 
651.066  1.93200000e+03 
651.030  1.94400000e+03 
650.994  1.91200000e+03 
650.958  1.89300000e+03 
650.922  1.83300000e+03 
650.886  1.82300000e+03 
650.850  1.90500000e+03 
650.814  1.95100000e+03 
650.778  1.90900000e+03 
650.742  1.95500000e+03 
650.706  1.89300000e+03 
650.670  1.92000000e+03 
650.634  2.00500000e+03 
650.598  1.90100000e+03 
650.563  1.84300000e+03 
650.527  1.80000000e+03 
650.491  1.83900000e+03 
650.455  1.92100000e+03 
650.419  1.83700000e+03 
650.383  1.89500000e+03 
650.347  1.82200000e+03 
650.311  1.84600000e+03 
650.275  1.85100000e+03 
650.239  1.82600000e+03 
650.203  1.87800000e+03 
650.167  1.87100000e+03 
650.131  1.96100000e+03 
650.095  1.83100000e+03 
650.059  1.86200000e+03 
650.023  1.81800000e+03 
649.988  1.87100000e+03 
649.952  1.83100000e+03 
649.916  1.91200000e+03 
649.880  1.83500000e+03 
649.844  1.87200000e+03 
649.808  1.84900000e+03 
649.772  1.83400000e+03 
649.736  1.86900000e+03 
649.700  1.87400000e+03 
649.664  1.92100000e+03 
649.628  1.92100000e+03 
649.592  1.86900000e+03 
649.556  1.91000000e+03 
649.520  1.84200000e+03 
649.484  1.86300000e+03 
649.448  1.92700000e+03 
649.413  1.94200000e+03 
649.377  1.90600000e+03 
649.341  1.86600000e+03 
649.305  1.84900000e+03 
649.269  1.88900000e+03 
649.233  1.85400000e+03 
649.197  1.90900000e+03 
649.161  1.90500000e+03 
649.125  1.93000000e+03 
649.089  1.89400000e+03 
649.053  1.91800000e+03 
649.017  1.98600000e+03 
648.981  1.76400000e+03 
648.945  1.92700000e+03 
648.909  1.88400000e+03 
648.873  1.91000000e+03 
648.838  1.84500000e+03 
648.802  1.83500000e+03 
648.766  1.88800000e+03 
648.730  1.94400000e+03 
648.694  1.90800000e+03 
648.658  1.92300000e+03 
648.622  1.91100000e+03 
648.586  1.88300000e+03 
648.550  1.93600000e+03 
648.514  1.82700000e+03 
648.478  1.89900000e+03 
648.442  1.89500000e+03 
648.406  1.82400000e+03 
648.370  1.91300000e+03 
648.334  1.88100000e+03 
648.298  1.86300000e+03 
648.263  1.82200000e+03 
648.227  1.86600000e+03 
648.191  1.92400000e+03 
648.155  1.80600000e+03 
648.119  1.87200000e+03 
648.083  1.90300000e+03 
648.047  1.91000000e+03 
648.011  1.83200000e+03 
647.975  1.95700000e+03 
647.939  1.85300000e+03 
647.903  1.88500000e+03 
647.867  1.85500000e+03 
647.831  1.80000000e+03 
647.795  1.90800000e+03 
647.759  1.86100000e+03 
647.723  1.82700000e+03 
647.688  1.91000000e+03 
647.652  1.87700000e+03 
647.616  1.88600000e+03 
647.580  1.87400000e+03 
647.544  1.82100000e+03 
647.508  1.93200000e+03 
647.472  1.85700000e+03 
647.436  1.94700000e+03 
647.400  1.89100000e+03 
647.364  1.83200000e+03 
647.328  1.89800000e+03 
647.292  1.89400000e+03 
647.256  1.95000000e+03 
647.220  1.82700000e+03 
647.184  1.86900000e+03 
647.148  1.87300000e+03 
647.113  1.92200000e+03 
647.077  1.79000000e+03 
647.041  1.89500000e+03 
647.005  1.97800000e+03 
646.969  1.94500000e+03 
646.933  1.88800000e+03 
646.897  1.89000000e+03 
646.861  1.89700000e+03 
646.825  1.92700000e+03 
646.789  1.94900000e+03 
646.753  1.78600000e+03 
646.717  1.88200000e+03 
646.681  1.87800000e+03 
646.645  1.87900000e+03 
646.609  1.80500000e+03 
646.573  1.92600000e+03 
646.538  1.92400000e+03 
646.502  1.85500000e+03 
646.466  1.87000000e+03 
646.430  1.86200000e+03 
646.394  1.84000000e+03 
646.358  1.86600000e+03 
646.322  1.92200000e+03 
646.286  1.90000000e+03 
646.250  1.82800000e+03 
646.214  1.86700000e+03 
646.178  1.88400000e+03 
646.142  1.92000000e+03 
646.106  1.89800000e+03 
646.070  1.92100000e+03 
646.034  1.87200000e+03 
645.998  1.84700000e+03 
645.963  1.89800000e+03 
645.927  1.90300000e+03 
645.891  1.81200000e+03 
645.855  1.95500000e+03 
645.819  1.96100000e+03 
645.783  1.88700000e+03 
645.747  1.89800000e+03 
645.711  1.95100000e+03 
645.675  1.88400000e+03 
645.639  1.89800000e+03 
645.603  1.93900000e+03 
645.567  1.90700000e+03 
645.531  1.90700000e+03 
645.495  1.82000000e+03 
645.459  1.83500000e+03 
645.423  1.85900000e+03 
645.388  1.87100000e+03 
645.352  1.88000000e+03 
645.316  1.89400000e+03 
645.280  1.86800000e+03 
645.244  1.82300000e+03 
645.208  1.88300000e+03 
645.172  1.90300000e+03 
645.136  1.88200000e+03 
645.100  1.90500000e+03 
645.064  1.80800000e+03 
645.028  1.87600000e+03 
644.992  1.85100000e+03 
644.956  1.94100000e+03 
644.920  1.90700000e+03 
644.884  1.91900000e+03 
644.848  1.84100000e+03 
644.813  1.84800000e+03 
644.777  1.82400000e+03 
644.741  1.76100000e+03 
644.705  1.82900000e+03 
644.669  1.85600000e+03 
644.633  1.95400000e+03 
644.597  1.83200000e+03 
644.561  1.85500000e+03 
644.525  1.81800000e+03 
644.489  1.87000000e+03 
644.453  1.87900000e+03 
644.417  1.91300000e+03 
644.381  1.97900000e+03 
644.345  1.90700000e+03 
644.309  1.87900000e+03 
644.273  1.82800000e+03 
644.238  1.84900000e+03 
644.202  1.81300000e+03 
644.166  1.87900000e+03 
644.130  1.84000000e+03 
644.094  1.83400000e+03 
644.058  1.82300000e+03 
644.022  1.83600000e+03 
643.986  1.91200000e+03 
643.950  1.84300000e+03 
643.914  1.87800000e+03 
643.878  1.88700000e+03 
643.842  1.97500000e+03 
643.806  1.80400000e+03 
643.770  1.87700000e+03 
643.734  1.74700000e+03 
643.698  1.87100000e+03 
643.663  1.84400000e+03 
643.627  1.90100000e+03 
643.591  1.81600000e+03 
643.555  1.93400000e+03 
643.519  1.89600000e+03 
643.483  1.88000000e+03 
643.447  1.89800000e+03 
643.411  1.87900000e+03 
643.375  1.86800000e+03 
643.339  1.82000000e+03 
643.303  1.87600000e+03 
643.267  1.96400000e+03 
643.231  1.78600000e+03 
643.195  1.84800000e+03 
643.159  1.93800000e+03 
643.123  1.85100000e+03 
643.088  1.83300000e+03 
643.052  1.88900000e+03 
643.016  1.88100000e+03 
642.980  1.87500000e+03 
642.944  1.88400000e+03 
642.908  1.86900000e+03 
642.872  1.84600000e+03 
642.836  1.83300000e+03 
642.800  1.87000000e+03 
642.764  1.85800000e+03 
642.728  1.87000000e+03 
642.692  1.86600000e+03 
642.656  1.86000000e+03 
642.620  1.77000000e+03 
642.584  1.91100000e+03 
642.548  1.85800000e+03 
642.513  1.87800000e+03 
642.477  1.79000000e+03 
642.441  1.88700000e+03 
642.405  1.87200000e+03 
642.369  1.85200000e+03 
642.333  1.94200000e+03 
642.297  1.84100000e+03 
642.261  1.86900000e+03 
642.225  1.85800000e+03 
642.189  1.79300000e+03 
642.153  1.85400000e+03 
642.117  1.81500000e+03 
642.081  1.95500000e+03 
642.045  1.83500000e+03 
642.009  1.86700000e+03 
641.973  1.80400000e+03 
641.938  1.90600000e+03 
641.902  1.83900000e+03 
641.866  1.83500000e+03 
641.830  1.79500000e+03 
641.794  1.89200000e+03 
641.758  1.88700000e+03 
641.722  1.85100000e+03 
641.686  1.81900000e+03 
641.650  1.96400000e+03 
641.614  1.88700000e+03 
641.578  1.86900000e+03 
641.542  1.90400000e+03 
641.506  1.86000000e+03 
641.470  1.80600000e+03 
641.434  1.82800000e+03 
641.398  1.85800000e+03 
641.363  1.83800000e+03 
641.327  1.89200000e+03 
641.291  1.86700000e+03 
641.255  1.86700000e+03 
641.219  1.85700000e+03 
641.183  1.85300000e+03 
641.147  1.87000000e+03 
641.111  1.85200000e+03 
641.075  1.78500000e+03 
641.039  1.85000000e+03 
641.003  1.88100000e+03 
640.967  1.72900000e+03 
640.931  1.86500000e+03 
640.895  1.82600000e+03 
640.859  1.91800000e+03 
640.823  1.83400000e+03 
640.788  1.86800000e+03 
640.752  1.80200000e+03 
640.716  1.91300000e+03 
640.680  1.81200000e+03 
640.644  1.80600000e+03 
640.608  1.89400000e+03 
640.572  1.85800000e+03 
640.536  1.86800000e+03 
640.500  1.85700000e+03 
640.464  1.87200000e+03 
640.428  1.83800000e+03 
640.392  1.87100000e+03 
640.356  1.89300000e+03 
640.320  1.87000000e+03 
640.284  1.81700000e+03 
640.248  1.88200000e+03 
640.213  1.89400000e+03 
640.177  1.87100000e+03 
640.141  1.87600000e+03 
640.105  1.85300000e+03 
640.069  1.88500000e+03 
640.033  1.82800000e+03 
639.997  1.86500000e+03 
639.961  1.90900000e+03 
639.925  1.81000000e+03 
639.889  1.94500000e+03 
639.853  1.94500000e+03 
639.817  1.89900000e+03 
639.781  1.85400000e+03 
639.745  1.90500000e+03 
639.709  1.85700000e+03 
639.673  1.96400000e+03 
639.638  1.80700000e+03 
639.602  1.90000000e+03 
639.566  1.83800000e+03 
639.530  1.91700000e+03 
639.494  1.93100000e+03 
639.458  1.90400000e+03 
639.422  1.86900000e+03 
639.386  1.87200000e+03 
639.350  1.95800000e+03 
639.314  1.84700000e+03 
639.278  1.86800000e+03 
639.242  1.85400000e+03 
639.206  1.84900000e+03 
639.170  1.91200000e+03 
639.134  1.79400000e+03 
639.098  1.79200000e+03 
639.063  1.83900000e+03 
639.027  1.79600000e+03 
638.991  1.79100000e+03 
638.955  1.91600000e+03 
638.919  1.80100000e+03 
638.883  1.88200000e+03 
638.847  1.92700000e+03 
638.811  1.83500000e+03 
638.775  1.89800000e+03 
638.739  1.83500000e+03 
638.703  1.81300000e+03 
638.667  1.88200000e+03 
638.631  1.90600000e+03 
638.595  1.77300000e+03 
638.559  1.89400000e+03 
638.523  1.86500000e+03 
638.488  1.78300000e+03 
638.452  1.93000000e+03 
638.416  1.89600000e+03 
638.380  1.83600000e+03 
638.344  1.87000000e+03 
638.308  1.88200000e+03 
638.272  1.86500000e+03 
638.236  1.85800000e+03 
638.200  1.88400000e+03 
638.164  1.88100000e+03 
638.128  1.83200000e+03 
638.092  1.86600000e+03 
638.056  1.85100000e+03 
638.020  1.82900000e+03 
637.984  1.86200000e+03 
637.948  1.83600000e+03 
637.913  1.90800000e+03 
637.877  1.82700000e+03 
637.841  1.77300000e+03 
637.805  1.80700000e+03 
637.769  1.85700000e+03 
637.733  1.92100000e+03 
637.697  1.91300000e+03 
637.661  1.80300000e+03 
637.625  1.80100000e+03 
637.589  1.89300000e+03 
637.553  1.85300000e+03 
637.517  1.85800000e+03 
637.481  1.84700000e+03 
637.445  1.87000000e+03 
637.409  1.83800000e+03 
637.373  1.84100000e+03 
637.338  1.86600000e+03 
637.302  1.85800000e+03 
637.266  1.93600000e+03 
637.230  1.91200000e+03 
637.194  1.83300000e+03 
637.158  1.90100000e+03 
637.122  1.83700000e+03 
637.086  1.76800000e+03 
637.050  1.92000000e+03 
637.014  1.86600000e+03 
636.978  1.93500000e+03 
636.942  1.79000000e+03 
636.906  1.76800000e+03 
636.870  1.84700000e+03 
636.834  1.86000000e+03 
636.798  1.87200000e+03 
636.763  1.76300000e+03 
636.727  1.82500000e+03 
636.691  1.75900000e+03 
636.655  1.81200000e+03 
636.619  1.86000000e+03 
636.583  1.83100000e+03 
636.547  1.84100000e+03 
636.511  1.81500000e+03 
636.475  1.88600000e+03 
636.439  1.82300000e+03 
636.403  1.79000000e+03 
636.367  1.83300000e+03 
636.331  1.83400000e+03 
636.295  1.76700000e+03 
636.259  1.83000000e+03 
636.223  1.78500000e+03 
636.188  1.74200000e+03 
636.152  1.80700000e+03 
636.116  1.89100000e+03 
636.080  1.81800000e+03 
636.044  1.89600000e+03 
636.008  1.84900000e+03 
635.972  1.85500000e+03 
635.936  1.77500000e+03 
635.900  1.84400000e+03 
635.864  1.87700000e+03 
635.828  1.80900000e+03 
635.792  1.81000000e+03 
635.756  1.75800000e+03 
635.720  1.86200000e+03 
635.684  1.76700000e+03 
635.648  1.84000000e+03 
635.613  1.92000000e+03 
635.577  1.82500000e+03 
635.541  1.85300000e+03 
635.505  1.84900000e+03 
635.469  1.77700000e+03 
635.433  1.81000000e+03 
635.397  1.81600000e+03 
635.361  1.86000000e+03 
635.325  1.85100000e+03 
635.289  1.90900000e+03 
635.253  1.75800000e+03 
635.217  1.89300000e+03 
635.181  1.86500000e+03 
635.145  1.87100000e+03 
635.109  1.86800000e+03 
635.073  1.85900000e+03 
635.038  1.87400000e+03 
635.002  1.90500000e+03 
634.966  1.87100000e+03 
634.930  1.84900000e+03 
634.894  1.94100000e+03 
634.858  1.85400000e+03 
634.822  1.87700000e+03 
634.786  1.91300000e+03 
634.750  1.77300000e+03 
634.714  1.83300000e+03 
634.678  1.86700000e+03 
634.642  1.84300000e+03 
634.606  1.79400000e+03 
634.570  1.83300000e+03 
634.534  1.82400000e+03 
634.498  1.80900000e+03 
634.463  1.87900000e+03 
634.427  1.81300000e+03 
634.391  1.80400000e+03 
634.355  1.74700000e+03 
634.319  1.86900000e+03 
634.283  1.92100000e+03 
634.247  1.85400000e+03 
634.211  1.80800000e+03 
634.175  1.87300000e+03 
634.139  1.87600000e+03 
634.103  1.84800000e+03 
634.067  1.80500000e+03 
634.031  1.79400000e+03 
633.995  1.82800000e+03 
633.959  1.78800000e+03 
633.923  1.82300000e+03 
633.888  1.88500000e+03 
633.852  1.83200000e+03 
633.816  1.83700000e+03 
633.780  1.86100000e+03 
633.744  1.79700000e+03 
633.708  1.83400000e+03 
633.672  1.83200000e+03 
633.636  1.74900000e+03 
633.600  1.88000000e+03 
633.564  1.81800000e+03 
633.528  1.80500000e+03 
633.492  1.80400000e+03 
633.456  1.79400000e+03 
633.420  1.78200000e+03 
633.384  1.78800000e+03 
633.348  1.83200000e+03 
633.313  1.84000000e+03 
633.277  1.85400000e+03 
633.241  1.78300000e+03 
633.205  1.82400000e+03 
633.169  1.89200000e+03 
633.133  1.82900000e+03 
633.097  1.76900000e+03 
633.061  1.89600000e+03 
633.025  1.79600000e+03 
632.989  1.82100000e+03 
632.953  1.77300000e+03 
632.917  1.80100000e+03 
632.881  1.76100000e+03 
632.845  1.81100000e+03 
632.809  1.77600000e+03 
632.773  1.77100000e+03 
632.738  1.87900000e+03 
632.702  1.80900000e+03 
632.666  1.79700000e+03 
632.630  1.81000000e+03 
632.594  1.85200000e+03 
632.558  1.87400000e+03 
632.522  1.81300000e+03 
632.486  1.83400000e+03 
632.450  1.82500000e+03 
632.414  1.83200000e+03 
632.378  1.85500000e+03 
632.342  1.81100000e+03 
632.306  1.85800000e+03 
632.270  1.85200000e+03 
632.234  1.84300000e+03 
632.198  1.82200000e+03 
632.163  1.87200000e+03 
632.127  1.76900000e+03 
632.091  1.82300000e+03 
632.055  1.83600000e+03 
632.019  1.82500000e+03 
631.983  1.91100000e+03 
631.947  1.82900000e+03 
631.911  1.83100000e+03 
631.875  1.77700000e+03 
631.839  1.82900000e+03 
631.803  1.90900000e+03 
631.767  1.89400000e+03 
631.731  1.83700000e+03 
631.695  1.85800000e+03 
631.659  1.83000000e+03 
631.623  1.83400000e+03 
631.588  1.84200000e+03 
631.552  1.82500000e+03 
631.516  1.74100000e+03 
631.480  1.82900000e+03 
631.444  1.85100000e+03 
631.408  1.84500000e+03 
631.372  1.86100000e+03 
631.336  1.79800000e+03 
631.300  1.77300000e+03 
631.264  1.78100000e+03 
631.228  1.83100000e+03 
631.192  1.86200000e+03 
631.156  1.81600000e+03 
631.120  1.87100000e+03 
631.084  1.84600000e+03 
631.048  1.92200000e+03 
631.013  1.83800000e+03 
630.977  1.85000000e+03 
630.941  1.83500000e+03 
630.905  1.79800000e+03 
630.869  1.84000000e+03 
630.833  1.83300000e+03 
630.797  1.87600000e+03 
630.761  1.86100000e+03 
630.725  1.80500000e+03 
630.689  1.72300000e+03 
630.653  1.88700000e+03 
630.617  1.82500000e+03 
630.581  1.79200000e+03 
630.545  1.83500000e+03 
630.509  1.83000000e+03 
630.473  1.83700000e+03 
630.438  1.92300000e+03 
630.402  1.86800000e+03 
630.366  1.77000000e+03 
630.330  1.88100000e+03 
630.294  1.83000000e+03 
630.258  1.77700000e+03 
630.222  1.82300000e+03 
630.186  1.87200000e+03 
630.150  1.76300000e+03 
630.114  1.79600000e+03 
630.078  1.78900000e+03 
630.042  1.91200000e+03 
630.006  1.73700000e+03 
629.970  1.82400000e+03 
629.934  1.75200000e+03 
629.898  1.74600000e+03 
629.863  1.74900000e+03 
629.827  1.80700000e+03 
629.791  1.82500000e+03 
629.755  1.85900000e+03 
629.719  1.82700000e+03 
629.683  1.83000000e+03 
629.647  1.78700000e+03 
629.611  1.84400000e+03 
629.575  1.67900000e+03 
629.539  1.78800000e+03 
629.503  1.79500000e+03 
629.467  1.79200000e+03 
629.431  1.84800000e+03 
629.395  1.82300000e+03 
629.359  1.81500000e+03 
629.323  1.79200000e+03 
629.288  1.79400000e+03 
629.252  1.79900000e+03 
629.216  1.79700000e+03 
629.180  1.81700000e+03 
629.144  1.82500000e+03 
629.108  1.74200000e+03 
629.072  1.83200000e+03 
629.036  1.85700000e+03 
629.000  1.82900000e+03 
628.964  1.80700000e+03 
628.928  1.73900000e+03 
628.892  1.80400000e+03 
628.856  1.75100000e+03 
628.820  1.78300000e+03 
628.784  1.81400000e+03 
628.748  1.83600000e+03 
628.713  1.80000000e+03 
628.677  1.77800000e+03 
628.641  1.78200000e+03 
628.605  1.87800000e+03 
628.569  1.77900000e+03 
628.533  1.76900000e+03 
628.497  1.85500000e+03 
628.461  1.72500000e+03 
628.425  1.79200000e+03 
628.389  1.78000000e+03 
628.353  1.79600000e+03 
628.317  1.77700000e+03 
628.281  1.86200000e+03 
628.245  1.81400000e+03 
628.209  1.80200000e+03 
628.173  1.80400000e+03 
628.138  1.83600000e+03 
628.102  1.78800000e+03 
628.066  1.87300000e+03 
628.030  1.65900000e+03 
627.994  1.81200000e+03 
627.958  1.84800000e+03 
627.922  1.79500000e+03 
627.886  1.73700000e+03 
627.850  1.76000000e+03 
627.814  1.68900000e+03 
627.778  1.79500000e+03 
627.742  1.79100000e+03 
627.706  1.80000000e+03 
627.670  1.76800000e+03 
627.634  1.74800000e+03 
627.598  1.67500000e+03 
627.563  1.76100000e+03 
627.527  1.81000000e+03 
627.491  1.82500000e+03 
627.455  1.82300000e+03 
627.419  1.82600000e+03 
627.383  1.78600000e+03 
627.347  1.81200000e+03 
627.311  1.80000000e+03 
627.275  1.89300000e+03 
627.239  1.78600000e+03 
627.203  1.72300000e+03 
627.167  1.70100000e+03 
627.131  1.78400000e+03 
627.095  1.75400000e+03 
627.059  1.82800000e+03 
627.023  1.82800000e+03 
626.988  1.79500000e+03 
626.952  1.75100000e+03 
626.916  1.76500000e+03 
626.880  1.80800000e+03 
626.844  1.78000000e+03 
626.808  1.79700000e+03 
626.772  1.79300000e+03 
626.736  1.73300000e+03 
626.700  1.74400000e+03 
626.664  1.81300000e+03 
626.628  1.74600000e+03 
626.592  1.78600000e+03 
626.556  1.77200000e+03 
626.520  1.73000000e+03 
626.484  1.76100000e+03 
626.448  1.87000000e+03 
626.413  1.78100000e+03 
626.377  1.77600000e+03 
626.341  1.82300000e+03 
626.305  1.76900000e+03 
626.269  1.75700000e+03 
626.233  1.74400000e+03 
626.197  1.72200000e+03 
626.161  1.80000000e+03 
626.125  1.75100000e+03 
626.089  1.80800000e+03 
626.053  1.81100000e+03 
626.017  1.81100000e+03 
625.981  1.71500000e+03 
625.945  1.70500000e+03 
625.909  1.76300000e+03 
625.873  1.81600000e+03 
625.838  1.73000000e+03 
625.802  1.75000000e+03 
625.766  1.80200000e+03 
625.730  1.71600000e+03 
625.694  1.79900000e+03 
625.658  1.73800000e+03 
625.622  1.71400000e+03 
625.586  1.79700000e+03 
625.550  1.77900000e+03 
625.514  1.68600000e+03 
625.478  1.74700000e+03 
625.442  1.81500000e+03 
625.406  1.75100000e+03 
625.370  1.75200000e+03 
625.334  1.78900000e+03 
625.298  1.79400000e+03 
625.263  1.78900000e+03 
625.227  1.73900000e+03 
625.191  1.81300000e+03 
625.155  1.80000000e+03 
625.119  1.75800000e+03 
625.083  1.83000000e+03 
625.047  1.67500000e+03 
625.011  1.72500000e+03 
624.975  1.68200000e+03 
624.939  1.81700000e+03 
624.903  1.81500000e+03 
624.867  1.72100000e+03 
624.831  1.74300000e+03 
624.795  1.76400000e+03 
624.759  1.73800000e+03 
624.723  1.78900000e+03 
624.688  1.71500000e+03 
624.652  1.79300000e+03 
624.616  1.76300000e+03 
624.580  1.80000000e+03 
624.544  1.71300000e+03 
624.508  1.79800000e+03 
624.472  1.67100000e+03 
624.436  1.75800000e+03 
624.400  1.69700000e+03 
624.364  1.76500000e+03 
624.328  1.81300000e+03 
624.292  1.76200000e+03 
624.256  1.71500000e+03 
624.220  1.77000000e+03 
624.184  1.71400000e+03 
624.148  1.75300000e+03 
624.113  1.70500000e+03 
624.077  1.79300000e+03 
624.041  1.80800000e+03 
624.005  1.69100000e+03 
623.969  1.74700000e+03 
623.933  1.75300000e+03 
623.897  1.75600000e+03 
623.861  1.79300000e+03 
623.825  1.73900000e+03 
623.789  1.76700000e+03 
623.753  1.72800000e+03 
623.717  1.75500000e+03 
623.681  1.69500000e+03 
623.645  1.74200000e+03 
623.609  1.71100000e+03 
623.573  1.70900000e+03 
623.538  1.73500000e+03 
623.502  1.73500000e+03 
623.466  1.71000000e+03 
623.430  1.74400000e+03 
623.394  1.78400000e+03 
623.358  1.76300000e+03 
623.322  1.74400000e+03 
623.286  1.76400000e+03 
623.250  1.77900000e+03 
623.214  1.71100000e+03 
623.178  1.79100000e+03 
623.142  1.68500000e+03 
623.106  1.71100000e+03 
623.070  1.70900000e+03 
623.034  1.73100000e+03 
622.998  1.70900000e+03 
622.963  1.69300000e+03 
622.927  1.69700000e+03 
622.891  1.69400000e+03 
622.855  1.77600000e+03 
622.819  1.81400000e+03 
622.783  1.77100000e+03 
622.747  1.64700000e+03 
622.711  1.80300000e+03 
622.675  1.66400000e+03 
622.639  1.73200000e+03 
622.603  1.72800000e+03 
622.567  1.70000000e+03 
622.531  1.66400000e+03 
622.495  1.66400000e+03 
622.459  1.72700000e+03 
622.423  1.71600000e+03 
622.388  1.81400000e+03 
622.352  1.78400000e+03 
622.316  1.74300000e+03 
622.280  1.72600000e+03 
622.244  1.66700000e+03 
622.208  1.71000000e+03 
622.172  1.68300000e+03 
622.136  1.78400000e+03 
622.100  1.69400000e+03 
622.064  1.74300000e+03 
622.028  1.76300000e+03 
621.992  1.73700000e+03 
621.956  1.76000000e+03 
621.920  1.77100000e+03 
621.884  1.68200000e+03 
621.848  1.76100000e+03 
621.813  1.74400000e+03 
621.777  1.77600000e+03 
621.741  1.71300000e+03 
621.705  1.70700000e+03 
621.669  1.78200000e+03 
621.633  1.70300000e+03 
621.597  1.77000000e+03 
621.561  1.74400000e+03 
621.525  1.67400000e+03 
621.489  1.67400000e+03 
621.453  1.72800000e+03 
621.417  1.70600000e+03 
621.381  1.68200000e+03 
621.345  1.73300000e+03 
621.309  1.76200000e+03 
621.273  1.71700000e+03 
621.238  1.71300000e+03 
621.202  1.76100000e+03 
621.166  1.70500000e+03 
621.130  1.66600000e+03 
621.094  1.73800000e+03 
621.058  1.74100000e+03 
621.022  1.71300000e+03 
620.986  1.73500000e+03 
620.950  1.74800000e+03 
620.914  1.73700000e+03 
620.878  1.76700000e+03 
620.842  1.73800000e+03 
620.806  1.72200000e+03 
620.770  1.68700000e+03 
620.734  1.69100000e+03 
620.698  1.74800000e+03 
620.663  1.71500000e+03 
620.627  1.73500000e+03 
620.591  1.73800000e+03 
620.555  1.72900000e+03 
620.519  1.66500000e+03 
620.483  1.65300000e+03 
620.447  1.70700000e+03 
620.411  1.72900000e+03 
620.375  1.69100000e+03 
620.339  1.75400000e+03 
620.303  1.69700000e+03 
620.267  1.76600000e+03 
620.231  1.70600000e+03 
620.195  1.68100000e+03 
620.159  1.73000000e+03 
620.123  1.67000000e+03 
620.088  1.67000000e+03 
620.052  1.75600000e+03 
620.016  1.77400000e+03 
619.980  1.68900000e+03 
619.944  1.70500000e+03 
619.908  1.75200000e+03 
619.872  1.68300000e+03 
619.836  1.68400000e+03 
619.800  1.65500000e+03 
619.764  1.66500000e+03 
619.728  1.74000000e+03 
619.692  1.68100000e+03 
619.656  1.74400000e+03 
619.620  1.66700000e+03 
619.584  1.69500000e+03 
619.548  1.75700000e+03 
619.513  1.67700000e+03 
619.477  1.71900000e+03 
619.441  1.75800000e+03 
619.405  1.65900000e+03 
619.369  1.68600000e+03 
619.333  1.67800000e+03 
619.297  1.65400000e+03 
619.261  1.65100000e+03 
619.225  1.66100000e+03 
619.189  1.68300000e+03 
619.153  1.62700000e+03 
619.117  1.64100000e+03 
619.081  1.64700000e+03 
619.045  1.67800000e+03 
619.009  1.68200000e+03 
618.973  1.73900000e+03 
618.938  1.71700000e+03 
618.902  1.75300000e+03 
618.866  1.66700000e+03 
618.830  1.69400000e+03 
618.794  1.67300000e+03 
618.758  1.69500000e+03 
618.722  1.63300000e+03 
618.686  1.77100000e+03 
618.650  1.63500000e+03 
618.614  1.60800000e+03 
618.578  1.68600000e+03 
618.542  1.65000000e+03 
618.506  1.69900000e+03 
618.470  1.72300000e+03 
618.434  1.71500000e+03 
618.398  1.70300000e+03 
618.363  1.62500000e+03 
618.327  1.68200000e+03 
618.291  1.62100000e+03 
618.255  1.68500000e+03 
618.219  1.65100000e+03 
618.183  1.61400000e+03 
618.147  1.66100000e+03 
618.111  1.62200000e+03 
618.075  1.68200000e+03 
618.039  1.71600000e+03 
618.003  1.64400000e+03 
617.967  1.66100000e+03 
617.931  1.65700000e+03 
617.895  1.63600000e+03 
617.859  1.66900000e+03 
617.823  1.60900000e+03 
617.788  1.68000000e+03 
617.752  1.62700000e+03 
617.716  1.66300000e+03 
617.680  1.64800000e+03 
617.644  1.55000000e+03 
617.608  1.68600000e+03 
617.572  1.64700000e+03 
617.536  1.61600000e+03 
617.500  1.61100000e+03 
617.464  1.69300000e+03 
617.428  1.63100000e+03 
617.392  1.69800000e+03 
617.356  1.67600000e+03 
617.320  1.60900000e+03 
617.284  1.58600000e+03 
617.248  1.70600000e+03 
617.213  1.71400000e+03 
617.177  1.65000000e+03 
617.141  1.63000000e+03 
617.105  1.72600000e+03 
617.069  1.60500000e+03 
617.033  1.71300000e+03 
616.997  1.62100000e+03 
616.961  1.63300000e+03 
616.925  1.65200000e+03 
616.889  1.62900000e+03 
616.853  1.59800000e+03 
616.817  1.65900000e+03 
616.781  1.63000000e+03 
616.745  1.69400000e+03 
616.709  1.62500000e+03 
616.673  1.62900000e+03 
616.638  1.67300000e+03 
616.602  1.66900000e+03 
616.566  1.61100000e+03 
616.530  1.66300000e+03 
616.494  1.66600000e+03 
616.458  1.64000000e+03 
616.422  1.72300000e+03 
616.386  1.62300000e+03 
616.350  1.62800000e+03 
616.314  1.57900000e+03 
616.278  1.61300000e+03 
616.242  1.65300000e+03 
616.206  1.59600000e+03 
616.170  1.70400000e+03 
616.134  1.65700000e+03 
616.098  1.63400000e+03 
616.063  1.58500000e+03 
616.027  1.59900000e+03 
615.991  1.63700000e+03 
615.955  1.70600000e+03 
615.919  1.62400000e+03 
615.883  1.68500000e+03 
615.847  1.68700000e+03 
615.811  1.60200000e+03 
615.775  1.58600000e+03 
615.739  1.59000000e+03 
615.703  1.60100000e+03 
615.667  1.58500000e+03 
615.631  1.69500000e+03 
615.595  1.64100000e+03 
615.559  1.64400000e+03 
615.523  1.65700000e+03 
615.488  1.61000000e+03 
615.452  1.59400000e+03 
615.416  1.61800000e+03 
615.380  1.67800000e+03 
615.344  1.64600000e+03 
615.308  1.63700000e+03 
615.272  1.57100000e+03 
615.236  1.65000000e+03 
615.200  1.61400000e+03 
615.164  1.65300000e+03 
615.128  1.66000000e+03 
615.092  1.68700000e+03 
615.056  1.69200000e+03 
615.020  1.61700000e+03 
614.984  1.58200000e+03 
614.948  1.51000000e+03 
614.913  1.62000000e+03 
614.877  1.69400000e+03 
614.841  1.60600000e+03 
614.805  1.67000000e+03 
614.769  1.61400000e+03 
614.733  1.57900000e+03 
614.697  1.66600000e+03 
614.661  1.67700000e+03 
614.625  1.65100000e+03 
614.589  1.59800000e+03 
614.553  1.64100000e+03 
614.517  1.61200000e+03 
614.481  1.73000000e+03 
614.445  1.64200000e+03 
614.409  1.65900000e+03 
614.373  1.65400000e+03 
614.338  1.72100000e+03 
614.302  1.57900000e+03 
614.266  1.70800000e+03 
614.230  1.68700000e+03 
614.194  1.74200000e+03 
614.158  1.64000000e+03 
614.122  1.68100000e+03 
614.086  1.64400000e+03 
614.050  1.61100000e+03 
614.014  1.63500000e+03 
613.978  1.63100000e+03 
613.942  1.68000000e+03 
613.906  1.64700000e+03 
613.870  1.65300000e+03 
613.834  1.64900000e+03 
613.798  1.65400000e+03 
613.763  1.69400000e+03 
613.727  1.67000000e+03 
613.691  1.70100000e+03 
613.655  1.75700000e+03 
613.619  1.70100000e+03 
613.583  1.65700000e+03 
613.547  1.74000000e+03 
613.511  1.78100000e+03 
613.475  1.71900000e+03 
613.439  1.63300000e+03 
613.403  1.64900000e+03 
613.367  1.74200000e+03 
613.331  1.63000000e+03 
613.295  1.66000000e+03 
613.259  1.69100000e+03 
613.223  1.70300000e+03 
613.188  1.70700000e+03 
613.152  1.68900000e+03 
613.116  1.71100000e+03 
613.080  1.73200000e+03 
613.044  1.71300000e+03 
613.008  1.67800000e+03 
612.972  1.67600000e+03 
612.936  1.71400000e+03 
612.900  1.68100000e+03 
612.864  1.73200000e+03 
612.828  1.67400000e+03 
612.792  1.75700000e+03 
612.756  1.77800000e+03 
612.720  1.71900000e+03 
612.684  1.73300000e+03 
612.648  1.70300000e+03 
612.613  1.70400000e+03 
612.577  1.69400000e+03 
612.541  1.68500000e+03 
612.505  1.74400000e+03 
612.469  1.67800000e+03 
612.433  1.74400000e+03 
612.397  1.68700000e+03 
612.361  1.71600000e+03 
612.325  1.75500000e+03 
612.289  1.72800000e+03 
612.253  1.72100000e+03 
612.217  1.65600000e+03 
612.181  1.68100000e+03 
612.145  1.75600000e+03 
612.109  1.78300000e+03 
612.073  1.75400000e+03 
612.038  1.68300000e+03 
612.002  1.69700000e+03 
611.966  1.73600000e+03 
611.930  1.74800000e+03 
611.894  1.76100000e+03 
611.858  1.77100000e+03 
611.822  1.75200000e+03 
611.786  1.73000000e+03 
611.750  1.74800000e+03 
611.714  1.73700000e+03 
611.678  1.79100000e+03 
611.642  1.74400000e+03 
611.606  1.70400000e+03 
611.570  1.75200000e+03 
611.534  1.78700000e+03 
611.498  1.75100000e+03 
611.463  1.75600000e+03 
611.427  1.67600000e+03 
611.391  1.74000000e+03 
611.355  1.80500000e+03 
611.319  1.71100000e+03 
611.283  1.72400000e+03 
611.247  1.84600000e+03 
611.211  1.75900000e+03 
611.175  1.80600000e+03 
611.139  1.73300000e+03 
611.103  1.76500000e+03 
611.067  1.80900000e+03 
611.031  1.83000000e+03 
610.995  1.89400000e+03 
610.959  1.84800000e+03 
610.923  1.84200000e+03 
610.888  1.72800000e+03 
610.852  1.78700000e+03 
610.816  1.84600000e+03 
610.780  1.85500000e+03 
610.744  1.79600000e+03 
610.708  1.82400000e+03 
610.672  1.75700000e+03 
610.636  1.82400000e+03 
610.600  1.84800000e+03 
610.564  1.82200000e+03 
610.528  1.86300000e+03 
610.492  1.77700000e+03 
610.456  1.87300000e+03 
610.420  1.78200000e+03 
610.384  1.83600000e+03 
610.348  1.78400000e+03 
610.313  1.77900000e+03 
610.277  1.79000000e+03 
610.241  1.82600000e+03 
610.205  1.83200000e+03 
610.169  1.85600000e+03 
610.133  1.82600000e+03 
610.097  1.76800000e+03 
610.061  1.87400000e+03 
610.025  1.88900000e+03 
609.989  1.90500000e+03 
609.953  1.83400000e+03 
609.917  1.87500000e+03 
609.881  1.83400000e+03 
609.845  1.94300000e+03 
609.809  1.95900000e+03 
609.773  1.90500000e+03 
609.738  1.82500000e+03 
609.702  1.95000000e+03 
609.666  1.91900000e+03 
609.630  1.88000000e+03 
609.594  1.86000000e+03 
609.558  1.84500000e+03 
609.522  1.85400000e+03 
609.486  1.81700000e+03 
609.450  1.82500000e+03 
609.414  1.98100000e+03 
609.378  1.97900000e+03 
609.342  1.89600000e+03 
609.306  1.81000000e+03 
609.270  1.92700000e+03 
609.234  1.84900000e+03 
609.198  1.81000000e+03 
609.163  1.89000000e+03 
609.127  1.89100000e+03 
609.091  1.85000000e+03 
609.055  1.95200000e+03 
609.019  1.88300000e+03 
608.983  1.92300000e+03 
608.947  1.92100000e+03 
608.911  1.92900000e+03 
608.875  1.90000000e+03 
608.839  1.93000000e+03 
608.803  1.90900000e+03 
608.767  1.93200000e+03 
608.731  1.91500000e+03 
608.695  1.97600000e+03 
608.659  1.80300000e+03 
608.623  1.91000000e+03 
608.588  1.96100000e+03 
608.552  1.95800000e+03 
608.516  1.91000000e+03 
608.480  1.94400000e+03 
608.444  1.91600000e+03 
608.408  1.87400000e+03 
608.372  1.88400000e+03 
608.336  1.98100000e+03 
608.300  1.92300000e+03 
608.264  1.97200000e+03 
608.228  2.00000000e+03 
608.192  1.91000000e+03 
608.156  1.92100000e+03 
608.120  1.94700000e+03 
608.084  1.88400000e+03 
608.048  1.90800000e+03 
608.013  2.01000000e+03 
607.977  1.92400000e+03 
607.941  1.96400000e+03 
607.905  1.98900000e+03 
607.869  1.96900000e+03 
607.833  1.91600000e+03 
607.797  1.94300000e+03 
607.761  1.96500000e+03 
607.725  1.95100000e+03 
607.689  1.99600000e+03 
607.653  1.94200000e+03 
607.617  1.95300000e+03 
607.581  1.92400000e+03 
607.545  1.92300000e+03 
607.509  2.02000000e+03 
607.473  1.93100000e+03 
607.438  2.01400000e+03 
607.402  1.95800000e+03 
607.366  1.95100000e+03 
607.330  1.94000000e+03 
607.294  2.01100000e+03 
607.258  2.05500000e+03 
607.222  1.95000000e+03 
607.186  1.96600000e+03 
607.150  1.94900000e+03 
607.114  1.95300000e+03 
607.078  2.01400000e+03 
607.042  2.06100000e+03 
607.006  1.91300000e+03 
606.970  1.96300000e+03 
606.934  2.04500000e+03 
606.898  1.99600000e+03 
606.863  1.89900000e+03 
606.827  1.96800000e+03 
606.791  2.04600000e+03 
606.755  1.97900000e+03 
606.719  2.02300000e+03 
606.683  2.00300000e+03 
606.647  1.96300000e+03 
606.611  2.07400000e+03 
606.575  1.99900000e+03 
606.539  2.01600000e+03 
606.503  2.07000000e+03 
606.467  2.02200000e+03 
606.431  2.00100000e+03 
606.395  1.94900000e+03 
606.359  2.06600000e+03 
606.323  2.06200000e+03 
606.288  2.02900000e+03 
606.252  2.02300000e+03 
606.216  2.01300000e+03 
606.180  2.01200000e+03 
606.144  1.98600000e+03 
606.108  2.05300000e+03 
606.072  1.93600000e+03 
606.036  2.00500000e+03 
606.000  2.07400000e+03 
605.964  1.94400000e+03 
605.928  1.96300000e+03 
605.892  2.08900000e+03 
605.856  1.98300000e+03 
605.820  2.07000000e+03 
605.784  2.04700000e+03 
605.748  2.06200000e+03 
605.713  1.98000000e+03 
605.677  1.95400000e+03 
605.641  2.00900000e+03 
605.605  1.98500000e+03 
605.569  1.92400000e+03 
605.533  1.96200000e+03 
605.497  1.96000000e+03 
605.461  1.98300000e+03 
605.425  1.97600000e+03 
605.389  1.92200000e+03 
605.353  1.99800000e+03 
605.317  1.98200000e+03 
605.281  1.97300000e+03 
605.245  2.03900000e+03 
605.209  1.91800000e+03 
605.173  2.07400000e+03 
605.138  2.06800000e+03 
605.102  1.96700000e+03 
605.066  1.99600000e+03 
605.030  1.98500000e+03 
604.994  1.99400000e+03 
604.958  1.98800000e+03 
604.922  1.99600000e+03 
604.886  1.97600000e+03 
604.850  1.97100000e+03 
604.814  2.09800000e+03 
604.778  1.96400000e+03 
604.742  1.99200000e+03 
604.706  2.04400000e+03 
604.670  1.94100000e+03 
604.634  2.04100000e+03 
604.598  1.94700000e+03 
604.563  2.04800000e+03 
604.527  1.96300000e+03 
604.491  2.06000000e+03 
604.455  2.03700000e+03 
604.419  1.97600000e+03 
604.383  1.98400000e+03 
604.347  1.96900000e+03 
604.311  1.91200000e+03 
604.275  1.97200000e+03 
604.239  1.92500000e+03 
604.203  1.99900000e+03 
604.167  2.02900000e+03 
604.131  1.99400000e+03 
604.095  1.99700000e+03 
604.059  1.98100000e+03 
604.023  2.01600000e+03 
603.988  2.03300000e+03 
603.952  1.97900000e+03 
603.916  1.97300000e+03 
603.880  1.94000000e+03 
603.844  1.94000000e+03 
603.808  1.98100000e+03 
603.772  2.00500000e+03 
603.736  2.03000000e+03 
603.700  2.04100000e+03 
603.664  1.97600000e+03 
603.628  1.96500000e+03 
603.592  2.03700000e+03 
603.556  1.90500000e+03 
603.520  2.07000000e+03 
603.484  1.98800000e+03 
603.448  1.94500000e+03 
603.413  1.95400000e+03 
603.377  1.91300000e+03 
603.341  2.03400000e+03 
603.305  1.95600000e+03 
603.269  2.04900000e+03 
603.233  2.02100000e+03 
603.197  2.04700000e+03 
603.161  1.93400000e+03 
603.125  2.00700000e+03 
603.089  1.96800000e+03 
603.053  1.91300000e+03 
603.017  2.04200000e+03 
602.981  2.09900000e+03 
602.945  1.94900000e+03 
602.909  1.94800000e+03 
602.873  2.00600000e+03 
602.838  1.95400000e+03 
602.802  1.98700000e+03 
602.766  1.99900000e+03 
602.730  2.03700000e+03 
602.694  1.99600000e+03 
602.658  1.95300000e+03 
602.622  1.95200000e+03 
602.586  1.95700000e+03 
602.550  2.06400000e+03 
602.514  1.96100000e+03 
602.478  1.94500000e+03 
602.442  2.01900000e+03 
602.406  2.02500000e+03 
602.370  2.01400000e+03 
602.334  1.94500000e+03 
602.298  2.00200000e+03 
602.263  2.03100000e+03 
602.227  1.96100000e+03 
602.191  2.08800000e+03 
602.155  1.96400000e+03 
602.119  1.99500000e+03 
602.083  1.96500000e+03 
602.047  1.97700000e+03 
602.011  1.96800000e+03 
601.975  2.04700000e+03 
601.939  1.99700000e+03 
601.903  1.96500000e+03 
601.867  1.94600000e+03 
601.831  1.94700000e+03 
601.795  1.98600000e+03 
601.759  1.93200000e+03 
601.723  1.98900000e+03 
601.688  1.94400000e+03 
601.652  1.96400000e+03 
601.616  2.07500000e+03 
601.580  1.96500000e+03 
601.544  1.98900000e+03 
601.508  1.97500000e+03 
601.472  2.02000000e+03 
601.436  1.99600000e+03 
601.400  1.99400000e+03 
601.364  1.95300000e+03 
601.328  2.00700000e+03 
601.292  1.92700000e+03 
601.256  2.05500000e+03 
601.220  1.95000000e+03 
601.184  2.02100000e+03 
601.148  1.98500000e+03 
601.113  2.04200000e+03 
601.077  1.91000000e+03 
601.041  1.95000000e+03 
601.005  1.98400000e+03 
600.969  2.01800000e+03 
600.933  2.00000000e+03 
600.897  2.06100000e+03 
600.861  1.96500000e+03 
600.825  1.99000000e+03 
600.789  1.99200000e+03 
600.753  2.03600000e+03 
600.717  2.11200000e+03 
600.681  2.00300000e+03 
600.645  1.96500000e+03 
600.609  1.97800000e+03 
600.573  2.05100000e+03 
600.538  1.94400000e+03 
600.502  1.97100000e+03 
600.466  1.95300000e+03 
600.430  2.00300000e+03 
600.394  1.93000000e+03 
600.358  1.97400000e+03 
600.322  1.99500000e+03 
600.286  2.01000000e+03 
600.250  2.00000000e+03 
600.214  1.98800000e+03 
600.178  1.91000000e+03 
600.142  2.04600000e+03 
600.106  2.05900000e+03 
600.070  2.03200000e+03 
600.034  1.92900000e+03 
599.998  1.93800000e+03 
599.963  1.94500000e+03 
599.927  1.95900000e+03 
599.891  1.93200000e+03 
599.855  2.06600000e+03 
599.819  1.94500000e+03 
599.783  2.03100000e+03 
599.747  2.05900000e+03 
599.711  1.93900000e+03 
599.675  2.04200000e+03 
599.639  1.99900000e+03 
599.603  1.94700000e+03 
599.567  1.93100000e+03 
599.531  1.95000000e+03 
599.495  1.98500000e+03 
599.459  1.95000000e+03 
599.423  1.99800000e+03 
599.388  1.98800000e+03 
599.352  2.02300000e+03 
599.316  1.99500000e+03 
599.280  2.05100000e+03 
599.244  1.91600000e+03 
599.208  1.89200000e+03 
599.172  1.99800000e+03 
599.136  1.96900000e+03 
599.100  2.02800000e+03 
599.064  1.92100000e+03 
599.028  1.89200000e+03 
598.992  2.01700000e+03 
598.956  1.97200000e+03 
598.920  2.06900000e+03 
598.884  2.03900000e+03 
598.848  1.96200000e+03 
598.813  2.02600000e+03 
598.777  1.89800000e+03 
598.741  1.89600000e+03 
598.705  1.96800000e+03 
598.669  1.98700000e+03 
598.633  1.96300000e+03 
598.597  1.92400000e+03 
598.561  2.00200000e+03 
598.525  2.00800000e+03 
598.489  1.96600000e+03 
598.453  1.88200000e+03 
598.417  2.01100000e+03 
598.381  1.96400000e+03 
598.345  1.96200000e+03 
598.309  1.99800000e+03 
598.273  1.98400000e+03 
598.238  1.93200000e+03 
598.202  2.01400000e+03 
598.166  1.98900000e+03 
598.130  2.05000000e+03 
598.094  1.97800000e+03 
598.058  1.98200000e+03 
598.022  2.00100000e+03 
597.986  1.96100000e+03 
597.950  1.89500000e+03 
597.914  1.92300000e+03 
597.878  2.00500000e+03 
597.842  2.05600000e+03 
597.806  1.99500000e+03 
597.770  2.09100000e+03 
597.734  2.05900000e+03 
597.698  1.94300000e+03 
597.663  1.97600000e+03 
597.627  1.98000000e+03 
597.591  1.99400000e+03 
597.555  2.05100000e+03 
597.519  1.99500000e+03 
597.483  2.00100000e+03 
597.447  1.99600000e+03 
597.411  2.01100000e+03 
597.375  1.93800000e+03 
597.339  2.06400000e+03 
597.303  1.99300000e+03 
597.267  1.97800000e+03 
597.231  2.01600000e+03 
597.195  2.02300000e+03 
597.159  1.99100000e+03 
597.123  1.97700000e+03 
597.088  2.00400000e+03 
597.052  2.06000000e+03 
597.016  1.94000000e+03 
596.980  2.00100000e+03 
596.944  2.02100000e+03 
596.908  1.96000000e+03 
596.872  2.03100000e+03 
596.836  2.05200000e+03 
596.800  1.97100000e+03 
596.764  1.98800000e+03 
596.728  1.97300000e+03 
596.692  1.97000000e+03 
596.656  1.90600000e+03 
596.620  1.96600000e+03 
596.584  1.96400000e+03 
596.548  1.98300000e+03 
596.513  1.98000000e+03 
596.477  2.02200000e+03 
596.441  1.93800000e+03 
596.405  1.95400000e+03 
596.369  1.93600000e+03 
596.333  1.95800000e+03 
596.297  1.94400000e+03 
596.261  2.01000000e+03 
596.225  1.98000000e+03 
596.189  2.06000000e+03 
596.153  2.01300000e+03 
596.117  2.06800000e+03 
596.081  1.93400000e+03 
596.045  1.96500000e+03 
596.009  2.02000000e+03 
595.973  2.04800000e+03 
595.938  1.97600000e+03 
595.902  1.99400000e+03 
595.866  1.97000000e+03 
595.830  2.00100000e+03 
595.794  2.08700000e+03 
595.758  1.92500000e+03 
595.722  1.94600000e+03 
595.686  1.96800000e+03 
595.650  1.94300000e+03 
595.614  2.07000000e+03 
595.578  2.06200000e+03 
595.542  2.03700000e+03 
595.506  2.09500000e+03 
595.470  1.90100000e+03 
595.434  2.00900000e+03 
595.398  1.98100000e+03 
595.363  2.01700000e+03 
595.327  1.99600000e+03 
595.291  1.96300000e+03 
595.255  2.01800000e+03 
595.219  2.00300000e+03 
595.183  1.97000000e+03 
595.147  2.00800000e+03 
595.111  2.01200000e+03 
595.075  1.93100000e+03 
595.039  2.04000000e+03 
595.003  2.04700000e+03 
594.967  2.00700000e+03 
594.931  1.96700000e+03 
594.895  2.04800000e+03 
594.859  1.98500000e+03 
594.823  1.95400000e+03 
594.788  1.90800000e+03 
594.752  2.02800000e+03 
594.716  1.95700000e+03 
594.680  1.97700000e+03 
594.644  2.08700000e+03 
594.608  1.99900000e+03 
594.572  2.04100000e+03 
594.536  2.02100000e+03 
594.500  2.01500000e+03 
594.464  2.02600000e+03 
594.428  2.02200000e+03 
594.392  1.98000000e+03 
594.356  1.95400000e+03 
594.320  1.97400000e+03 
594.284  1.90900000e+03 
594.248  2.05400000e+03 
594.213  2.06200000e+03 
594.177  1.96400000e+03 
594.141  1.99400000e+03 
594.105  2.02800000e+03 
594.069  2.00100000e+03 
594.033  2.01300000e+03 
593.997  2.08000000e+03 
593.961  1.97500000e+03 
593.925  2.02900000e+03 
593.889  1.94200000e+03 
593.853  2.05700000e+03 
593.817  1.98600000e+03 
593.781  2.02600000e+03 
593.745  1.92500000e+03 
593.709  1.90900000e+03 
593.673  1.99800000e+03 
593.638  1.93500000e+03 
593.602  2.02400000e+03 
593.566  1.98200000e+03 
593.530  1.97300000e+03 
593.494  1.98100000e+03 
593.458  1.99400000e+03 
593.422  1.95300000e+03 
593.386  2.03200000e+03 
593.350  2.06000000e+03 
593.314  1.91900000e+03 
593.278  1.99000000e+03 
593.242  2.01800000e+03 
593.206  1.96500000e+03 
593.170  2.02300000e+03 
593.134  1.94300000e+03 
593.098  2.00500000e+03 
593.063  1.99200000e+03 
593.027  2.03000000e+03 
592.991  1.96400000e+03 
592.955  2.02300000e+03 
592.919  1.97400000e+03 
592.883  1.94000000e+03 
592.847  2.05500000e+03 
592.811  1.96700000e+03 
592.775  2.03500000e+03 
592.739  1.93200000e+03 
592.703  2.00500000e+03 
592.667  2.00000000e+03 
592.631  2.01500000e+03 
592.595  1.97800000e+03 
592.559  2.04800000e+03 
592.523  2.00300000e+03 
592.488  1.99300000e+03 
592.452  1.96900000e+03 
592.416  2.03800000e+03 
592.380  1.98300000e+03 
592.344  1.94900000e+03 
592.308  1.96800000e+03 
592.272  1.95500000e+03 
592.236  1.91200000e+03 
592.200  2.06300000e+03 
592.164  1.97000000e+03 
592.128  2.05300000e+03 
592.092  2.05700000e+03 
592.056  1.90000000e+03 
592.020  1.88100000e+03 
591.984  1.98200000e+03 
591.948  1.98200000e+03 
591.913  1.98300000e+03 
591.877  1.99200000e+03 
591.841  1.98800000e+03 
591.805  1.96500000e+03 
591.769  2.08900000e+03 
591.733  1.89700000e+03 
591.697  1.97400000e+03 
591.661  1.97600000e+03 
591.625  1.94600000e+03 
591.589  1.95800000e+03 
591.553  1.94600000e+03 
591.517  2.02800000e+03 
591.481  1.98300000e+03 
591.445  1.95300000e+03 
591.409  1.94600000e+03 
591.373  1.98900000e+03 
591.338  1.90500000e+03 
591.302  1.95000000e+03 
591.266  1.98000000e+03 
591.230  2.00400000e+03 
591.194  2.06000000e+03 
591.158  1.93000000e+03 
591.122  2.03000000e+03 
591.086  2.03800000e+03 
591.050  1.99000000e+03 
591.014  1.99600000e+03 
590.978  1.93000000e+03 
590.942  1.97800000e+03 
590.906  1.96300000e+03 
590.870  2.07500000e+03 
590.834  1.99400000e+03 
590.798  2.00900000e+03 
590.763  2.07200000e+03 
590.727  1.97100000e+03 
590.691  2.00400000e+03 
590.655  1.97500000e+03 
590.619  1.97500000e+03 
590.583  2.00100000e+03 
590.547  2.03000000e+03 
590.511  2.01700000e+03 
590.475  2.02200000e+03 
590.439  2.01400000e+03 
590.403  1.91900000e+03 
590.367  1.93100000e+03 
590.331  1.89200000e+03 
590.295  1.92300000e+03 
590.259  1.98000000e+03 
590.223  2.01400000e+03 
590.188  1.98900000e+03 
590.152  2.01700000e+03 
590.116  1.90400000e+03 
590.080  1.96000000e+03 
590.044  2.02800000e+03 
590.008  1.89600000e+03 
589.972  1.93200000e+03 
589.936  1.98300000e+03 
589.900  1.96100000e+03 
589.864  2.01000000e+03 
589.828  2.00100000e+03 
589.792  2.00100000e+03 
589.756  1.93800000e+03 
589.720  1.90200000e+03 
589.684  1.95400000e+03 
589.648  1.97900000e+03 
589.613  1.96200000e+03 
589.577  1.92100000e+03 
589.541  1.92900000e+03 
589.505  1.94100000e+03 
589.469  2.02400000e+03 
589.433  2.01300000e+03 
589.397  1.91900000e+03 
589.361  2.02300000e+03 
589.325  1.91400000e+03 
589.289  2.02100000e+03 
589.253  1.88200000e+03 
589.217  1.89100000e+03 
589.181  1.93000000e+03 
589.145  1.84800000e+03 
589.109  1.94800000e+03 
589.073  1.96300000e+03 
589.038  2.00800000e+03 
589.002  1.94400000e+03 
588.966  1.92000000e+03 
588.930  1.89200000e+03 
588.894  1.98100000e+03 
588.858  2.00900000e+03 
588.822  1.92600000e+03 
588.786  1.95400000e+03 
588.750  1.90400000e+03 
588.714  1.98000000e+03 
588.678  1.87900000e+03 
588.642  1.97300000e+03 
588.606  1.92500000e+03 
588.570  1.97100000e+03 
588.534  1.91000000e+03 
588.498  1.87700000e+03 
588.463  1.93200000e+03 
588.427  1.98000000e+03 
588.391  2.01700000e+03 
588.355  1.98200000e+03 
588.319  2.02800000e+03 
588.283  1.86600000e+03 
588.247  1.93200000e+03 
588.211  1.91400000e+03 
588.175  1.98600000e+03 
588.139  1.92100000e+03 
588.103  1.97800000e+03 
588.067  1.91500000e+03 
588.031  1.97900000e+03 
587.995  2.00800000e+03 
587.959  1.89800000e+03 
587.923  1.94100000e+03 
587.888  1.94300000e+03 
587.852  1.95500000e+03 
587.816  1.85500000e+03 
587.780  1.96200000e+03 
587.744  1.90900000e+03 
587.708  1.89100000e+03 
587.672  2.01000000e+03 
587.636  1.95700000e+03 
587.600  1.98100000e+03 
587.564  1.91900000e+03 
587.528  1.92700000e+03 
587.492  1.94100000e+03 
587.456  1.98800000e+03 
587.420  2.04000000e+03 
587.384  1.96000000e+03 
587.348  1.92900000e+03 
587.313  2.00100000e+03 
587.277  1.92300000e+03 
587.241  1.87500000e+03 
587.205  1.95800000e+03 
587.169  1.86000000e+03 
587.133  1.91500000e+03 
587.097  1.94400000e+03 
587.061  1.92800000e+03 
587.025  1.94000000e+03 
586.989  1.91100000e+03 
586.953  1.97600000e+03 
586.917  1.97200000e+03 
586.881  1.95800000e+03 
586.845  1.96700000e+03 
586.809  1.96500000e+03 
586.773  1.86200000e+03 
586.738  1.92000000e+03 
586.702  1.88400000e+03 
586.666  1.84300000e+03 
586.630  1.95800000e+03 
586.594  1.88400000e+03 
586.558  1.86300000e+03 
586.522  1.91500000e+03 
586.486  1.90300000e+03 
586.450  1.87700000e+03 
586.414  1.94900000e+03 
586.378  1.91700000e+03 
586.342  1.89000000e+03 
586.306  1.88200000e+03 
586.270  1.96400000e+03 
586.234  1.93200000e+03 
586.198  2.04500000e+03 
586.163  1.94200000e+03 
586.127  1.96400000e+03 
586.091  1.92900000e+03 
586.055  1.95000000e+03 
586.019  1.97300000e+03 
585.983  1.89400000e+03 
585.947  1.89300000e+03 
585.911  1.99500000e+03 
585.875  1.99600000e+03 
585.839  1.88300000e+03 
585.803  1.90800000e+03 
585.767  1.96900000e+03 
585.731  1.93600000e+03 
585.695  1.91800000e+03 
585.659  1.94600000e+03 
585.623  1.90500000e+03 
585.588  1.96600000e+03 
585.552  1.89400000e+03 
585.516  1.97800000e+03 
585.480  1.84500000e+03 
585.444  1.96800000e+03 
585.408  1.89500000e+03 
585.372  1.88000000e+03 
585.336  1.89900000e+03 
585.300  1.92700000e+03 
585.264  1.97100000e+03 
585.228  1.91300000e+03 
585.192  1.96500000e+03 
585.156  1.92000000e+03 
585.120  1.99800000e+03 
585.084  1.97800000e+03 
585.048  1.87400000e+03 
585.013  1.93400000e+03 
584.977  1.97000000e+03 
584.941  1.91000000e+03 
584.905  1.92400000e+03 
584.869  1.86900000e+03 
584.833  1.87500000e+03 
584.797  1.93000000e+03 
584.761  1.92300000e+03 
584.725  1.94800000e+03 
584.689  1.86400000e+03 
584.653  1.89500000e+03 
584.617  1.89500000e+03 
584.581  2.00700000e+03 
584.545  1.88800000e+03 
584.509  1.93900000e+03 
584.473  1.93600000e+03 
584.438  1.90200000e+03 
584.402  1.94000000e+03 
584.366  1.96500000e+03 
584.330  1.97800000e+03 
584.294  1.90500000e+03 
584.258  1.93800000e+03 
584.222  1.90100000e+03 
584.186  1.86600000e+03 
584.150  1.86100000e+03 
584.114  1.95900000e+03 
584.078  1.93000000e+03 
584.042  1.88400000e+03 
584.006  1.92800000e+03 
583.970  1.92600000e+03 
583.934  1.88200000e+03 
583.898  1.91900000e+03 
583.863  1.86800000e+03 
583.827  1.93000000e+03 
583.791  1.88600000e+03 
583.755  1.88900000e+03 
583.719  1.92800000e+03 
583.683  1.99900000e+03 
583.647  1.85000000e+03 
583.611  1.97200000e+03 
583.575  1.98200000e+03 
583.539  1.90700000e+03 
583.503  1.88800000e+03 
583.467  1.90900000e+03 
583.431  1.96000000e+03 
583.395  1.87800000e+03 
583.359  1.97300000e+03 
583.323  1.89900000e+03 
583.288  1.93400000e+03 
583.252  1.91100000e+03 
583.216  1.86400000e+03 
583.180  2.00400000e+03 
583.144  1.84900000e+03 
583.108  1.95100000e+03 
583.072  1.84700000e+03 
583.036  1.95800000e+03 
583.000  1.96100000e+03 
582.964  1.92700000e+03 
582.928  1.88000000e+03 
582.892  1.95400000e+03 
582.856  1.98200000e+03 
582.820  1.90800000e+03 
582.784  1.92000000e+03 
582.748  1.86300000e+03 
582.713  1.89600000e+03 
582.677  1.84900000e+03 
582.641  1.92200000e+03 
582.605  1.91800000e+03 
582.569  1.94900000e+03 
582.533  1.90000000e+03 
582.497  1.92000000e+03 
582.461  1.85500000e+03 
582.425  1.92500000e+03 
582.389  1.92300000e+03 
582.353  1.94000000e+03 
582.317  1.88400000e+03 
582.281  1.93400000e+03 
582.245  1.85800000e+03 
582.209  1.93200000e+03 
582.173  1.94600000e+03 
582.138  1.88200000e+03 
582.102  1.94900000e+03 
582.066  1.89900000e+03 
582.030  1.95500000e+03 
581.994  1.92400000e+03 
581.958  1.91900000e+03 
581.922  1.88600000e+03 
581.886  1.96600000e+03 
581.850  1.79300000e+03 
581.814  1.90000000e+03 
581.778  1.92400000e+03 
581.742  1.91200000e+03 
581.706  1.87600000e+03 
581.670  1.91200000e+03 
581.634  1.91700000e+03 
581.598  1.91500000e+03 
581.563  1.89200000e+03 
581.527  1.87100000e+03 
581.491  1.86600000e+03 
581.455  1.95500000e+03 
581.419  1.86500000e+03 
581.383  1.80300000e+03 
581.347  1.97700000e+03 
581.311  1.89400000e+03 
581.275  1.93800000e+03 
581.239  1.93500000e+03 
581.203  1.92600000e+03 
581.167  1.87600000e+03 
581.131  1.96100000e+03 
581.095  1.86000000e+03 
581.059  1.84700000e+03 
581.023  1.90100000e+03 
580.988  1.87100000e+03 
580.952  1.91700000e+03 
580.916  1.83800000e+03 
580.880  1.87900000e+03 
580.844  1.89900000e+03 
580.808  1.87400000e+03 
580.772  1.86500000e+03 
580.736  1.89900000e+03 
580.700  1.87800000e+03 
580.664  1.87400000e+03 
580.628  1.79500000e+03 
580.592  1.91100000e+03 
580.556  1.93200000e+03 
580.520  1.88900000e+03 
580.484  1.92600000e+03 
580.448  1.82200000e+03 
580.413  1.93500000e+03 
580.377  1.84000000e+03 
580.341  1.96300000e+03 
580.305  1.91400000e+03 
580.269  1.87000000e+03 
580.233  1.85500000e+03 
580.197  1.92100000e+03 
580.161  1.99200000e+03 
580.125  1.83800000e+03 
580.089  1.83600000e+03 
580.053  2.05400000e+03 
580.017  1.89200000e+03 
579.981  1.86600000e+03 
579.945  1.88100000e+03 
579.909  1.87000000e+03 
579.873  1.90200000e+03 
579.838  1.90900000e+03 
579.802  1.91600000e+03 
579.766  1.91300000e+03 
579.730  1.86600000e+03 
579.694  1.85100000e+03 
579.658  1.79000000e+03 
579.622  1.91800000e+03 
579.586  1.97000000e+03 
579.550  1.80600000e+03 
579.514  1.87200000e+03 
579.478  1.90400000e+03 
579.442  1.86600000e+03 
579.406  1.88600000e+03 
579.370  1.90800000e+03 
579.334  1.83100000e+03 
579.298  1.91300000e+03 
579.263  1.93300000e+03 
579.227  1.87600000e+03 
579.191  1.94600000e+03 
579.155  1.85300000e+03 
579.119  1.86800000e+03 
579.083  1.84500000e+03 
579.047  1.92800000e+03 
579.011  1.92800000e+03 
578.975  1.95700000e+03 
578.939  1.90000000e+03 
578.903  1.85600000e+03 
578.867  1.91000000e+03 
578.831  1.93100000e+03 
578.795  1.89300000e+03 
578.759  1.87000000e+03 
578.723  1.92600000e+03 
578.688  1.87800000e+03 
578.652  1.94800000e+03 
578.616  1.91800000e+03 
578.580  1.85300000e+03 
578.544  1.91500000e+03 
578.508  1.99000000e+03 
578.472  1.77400000e+03 
578.436  1.85700000e+03 
578.400  1.85600000e+03 
578.364  1.85000000e+03 
578.328  1.89600000e+03 
578.292  1.90200000e+03 
578.256  1.90400000e+03 
578.220  1.85500000e+03 
578.184  1.89000000e+03 
578.148  1.85500000e+03 
578.113  2.00100000e+03 
578.077  1.86700000e+03 
578.041  1.93100000e+03 
578.005  1.93200000e+03 
577.969  1.80700000e+03 
577.933  1.93400000e+03 
577.897  1.84600000e+03 
577.861  1.96200000e+03 
577.825  1.93800000e+03 
577.789  1.81300000e+03 
577.753  1.83300000e+03 
577.717  1.89600000e+03 
577.681  1.84100000e+03 
577.645  1.88200000e+03 
577.609  1.89300000e+03 
577.573  1.84200000e+03 
577.538  1.84600000e+03 
577.502  1.86000000e+03 
577.466  1.86700000e+03 
577.430  1.89700000e+03 
577.394  1.80400000e+03 
577.358  1.89300000e+03 
577.322  1.90900000e+03 
577.286  1.83500000e+03 
577.250  1.92600000e+03 
577.214  1.83700000e+03 
577.178  1.88600000e+03 
577.142  1.85400000e+03 
577.106  1.90200000e+03 
577.070  1.93600000e+03 
577.034  1.86000000e+03 
576.998  1.86400000e+03 
576.963  1.84900000e+03 
576.927  1.88700000e+03 
576.891  1.76600000e+03 
576.855  1.83400000e+03 
576.819  1.92800000e+03 
576.783  1.83800000e+03 
576.747  1.84700000e+03 
576.711  1.85700000e+03 
576.675  1.82800000e+03 
576.639  1.84500000e+03 
576.603  1.90200000e+03 
576.567  1.88300000e+03 
576.531  1.84900000e+03 
576.495  1.80400000e+03 
576.459  1.85700000e+03 
576.423  1.93300000e+03 
576.388  1.83100000e+03 
576.352  1.84300000e+03 
576.316  1.81600000e+03 
576.280  1.83800000e+03 
576.244  1.83900000e+03 
576.208  1.80700000e+03 
576.172  1.80300000e+03 
576.136  1.87600000e+03 
576.100  1.82400000e+03 
576.064  1.83100000e+03 
576.028  1.81600000e+03 
575.992  1.79600000e+03 
575.956  1.80900000e+03 
575.920  1.86800000e+03 
575.884  1.83100000e+03 
575.848  1.88900000e+03 
575.813  1.87600000e+03 
575.777  1.84100000e+03 
575.741  1.80800000e+03 
575.705  1.87100000e+03 
575.669  1.79300000e+03 
575.633  1.88400000e+03 
575.597  1.82000000e+03 
575.561  1.81400000e+03 
575.525  1.85500000e+03 
575.489  1.92900000e+03 
575.453  1.82200000e+03 
575.417  1.75600000e+03 
575.381  1.87500000e+03 
575.345  1.89600000e+03 
575.309  1.86200000e+03 
575.273  1.80800000e+03 
575.238  1.83100000e+03 
575.202  1.81400000e+03 
575.166  1.87500000e+03 
575.130  1.87800000e+03 
575.094  1.84000000e+03 
575.058  1.83600000e+03 
575.022  1.84100000e+03 
574.986  1.86000000e+03 
574.950  1.84300000e+03 
574.914  1.95900000e+03 
574.878  1.77200000e+03 
574.842  1.79800000e+03 
574.806  1.83600000e+03 
574.770  1.82600000e+03 
574.734  1.82300000e+03 
574.698  1.85600000e+03 
574.663  1.82000000e+03 
574.627  1.81800000e+03 
574.591  1.82400000e+03 
574.555  1.88900000e+03 
574.519  1.78100000e+03 
574.483  1.87800000e+03 
574.447  1.82100000e+03 
574.411  1.85000000e+03 
574.375  1.83900000e+03 
574.339  1.79500000e+03 
574.303  1.68900000e+03 
574.267  1.87500000e+03 
574.231  1.78800000e+03 
574.195  1.77800000e+03 
574.159  1.84500000e+03 
574.123  1.79200000e+03 
574.088  1.88100000e+03 
574.052  1.81400000e+03 
574.016  1.86100000e+03 
573.980  1.86000000e+03 
573.944  1.80700000e+03 
573.908  1.79700000e+03 
573.872  1.88000000e+03 
573.836  1.80800000e+03 
573.800  1.76300000e+03 
573.764  1.78100000e+03 
573.728  1.82700000e+03 
573.692  1.85700000e+03 
573.656  1.74800000e+03 
573.620  1.91700000e+03 
573.584  1.82600000e+03 
573.548  1.75500000e+03 
573.513  1.85700000e+03 
573.477  1.99700000e+03 
573.441  1.87600000e+03 
573.405  1.90700000e+03 
573.369  1.86300000e+03 
573.333  1.79800000e+03 
573.297  1.76300000e+03 
573.261  1.80800000e+03 
573.225  1.79300000e+03 
573.189  1.79800000e+03 
573.153  1.82700000e+03 
573.117  1.85200000e+03 
573.081  1.80500000e+03 
573.045  1.84300000e+03 
573.009  1.75100000e+03 
572.973  1.78200000e+03 
572.938  1.71600000e+03 
572.902  1.80600000e+03 
572.866  1.76100000e+03 
572.830  1.84800000e+03 
572.794  1.78400000e+03 
572.758  1.80200000e+03 
572.722  1.76500000e+03 
572.686  1.85000000e+03 
572.650  1.79300000e+03 
572.614  1.79100000e+03 
572.578  1.82900000e+03 
572.542  1.84200000e+03 
572.506  1.87600000e+03 
572.470  1.78600000e+03 
572.434  1.81200000e+03 
572.398  1.84700000e+03 
572.363  1.79800000e+03 
572.327  1.83200000e+03 
572.291  1.76600000e+03 
572.255  1.78200000e+03 
572.219  1.80100000e+03 
572.183  1.88100000e+03 
572.147  1.85000000e+03 
572.111  1.73900000e+03 
572.075  1.82500000e+03 
572.039  1.83000000e+03 
572.003  1.80000000e+03 
571.967  1.78200000e+03 
571.931  1.81600000e+03 
571.895  1.78800000e+03 
571.859  1.83000000e+03 
571.823  1.78700000e+03 
571.788  1.78300000e+03 
571.752  1.87900000e+03 
571.716  1.77400000e+03 
571.680  1.75900000e+03 
571.644  1.84900000e+03 
571.608  1.83700000e+03 
571.572  1.83900000e+03 
571.536  1.83900000e+03 
571.500  1.84000000e+03 
571.464  1.82800000e+03 
571.428  1.79700000e+03 
571.392  1.76900000e+03 
571.356  1.79600000e+03 
571.320  1.76300000e+03 
571.284  1.85900000e+03 
571.248  1.77000000e+03 
571.213  1.78400000e+03 
571.177  1.82800000e+03 
571.141  1.83200000e+03 
571.105  1.72300000e+03 
571.069  1.81800000e+03 
571.033  1.88300000e+03 
570.997  1.80400000e+03 
570.961  1.81200000e+03 
570.925  1.80300000e+03 
570.889  1.78300000e+03 
570.853  1.78500000e+03 
570.817  1.85500000e+03 
570.781  1.80100000e+03 
570.745  1.78700000e+03 
570.709  1.75900000e+03 
570.673  1.86200000e+03 
570.638  1.78300000e+03 
570.602  1.75300000e+03 
570.566  1.78100000e+03 
570.530  1.75600000e+03 
570.494  1.74600000e+03 
570.458  1.74600000e+03 
570.422  1.80700000e+03 
570.386  1.79100000e+03 
570.350  1.82400000e+03 
570.314  1.76100000e+03 
570.278  1.78800000e+03 
570.242  1.82100000e+03 
570.206  1.79700000e+03 
570.170  1.83200000e+03 
570.134  1.77300000e+03 
570.098  1.70000000e+03 
570.063  1.67600000e+03 
570.027  1.83700000e+03 
569.991  1.80500000e+03 
569.955  1.81500000e+03 
569.919  1.82900000e+03 
569.883  1.67600000e+03 
569.847  1.79200000e+03 
569.811  1.78700000e+03 
569.775  1.89100000e+03 
569.739  1.80000000e+03 
569.703  1.83400000e+03 
569.667  1.85700000e+03 
569.631  1.81600000e+03 
569.595  1.78000000e+03 
569.559  1.75600000e+03 
569.523  1.75700000e+03 
569.488  1.71400000e+03 
569.452  1.78400000e+03 
569.416  1.73500000e+03 
569.380  1.68900000e+03 
569.344  1.81700000e+03 
569.308  1.78600000e+03 
569.272  1.76000000e+03 
569.236  1.72700000e+03 
569.200  1.76100000e+03 
569.164  1.87800000e+03 
569.128  1.73800000e+03 
569.092  1.79600000e+03 
569.056  1.69900000e+03 
569.020  1.80800000e+03 
568.984  1.74600000e+03 
568.948  1.81600000e+03 
568.913  1.80900000e+03 
568.877  1.74600000e+03 
568.841  1.78900000e+03 
568.805  1.77800000e+03 
568.769  1.81000000e+03 
568.733  1.70900000e+03 
568.697  1.72600000e+03 
568.661  1.70700000e+03 
568.625  1.81900000e+03 
568.589  1.80600000e+03 
568.553  1.68900000e+03 
568.517  1.74000000e+03 
568.481  1.77000000e+03 
568.445  1.77800000e+03 
568.409  1.78700000e+03 
568.373  1.81700000e+03 
568.338  1.76900000e+03 
568.302  1.75600000e+03 
568.266  1.77300000e+03 
568.230  1.66800000e+03 
568.194  1.73500000e+03 
568.158  1.77700000e+03 
568.122  1.72400000e+03 
568.086  1.75300000e+03 
568.050  1.75900000e+03 
568.014  1.79100000e+03 
567.978  1.74100000e+03 
567.942  1.73500000e+03 
567.906  1.75900000e+03 
567.870  1.74500000e+03 
567.834  1.81300000e+03 
567.798  1.73000000e+03 
567.763  1.72200000e+03 
567.727  1.79800000e+03 
567.691  1.63300000e+03 
567.655  1.81600000e+03 
567.619  1.77800000e+03 
567.583  1.76100000e+03 
567.547  1.81000000e+03 
567.511  1.75700000e+03 
567.475  1.80400000e+03 
567.439  1.74800000e+03 
567.403  1.79900000e+03 
567.367  1.73300000e+03 
567.331  1.79200000e+03 
567.295  1.78800000e+03 
567.259  1.78500000e+03 
567.223  1.69200000e+03 
567.188  1.74900000e+03 
567.152  1.76400000e+03 
567.116  1.77000000e+03 
567.080  1.76600000e+03 
567.044  1.74300000e+03 
567.008  1.76100000e+03 
566.972  1.74300000e+03 
566.936  1.75400000e+03 
566.900  1.81000000e+03 
566.864  1.76500000e+03 
566.828  1.73800000e+03 
566.792  1.80400000e+03 
566.756  1.76600000e+03 
566.720  1.73400000e+03 
566.684  1.76000000e+03 
566.648  1.71800000e+03 
566.613  1.75500000e+03 
566.577  1.70900000e+03 
566.541  1.78400000e+03 
566.505  1.73000000e+03 
566.469  1.72000000e+03 
566.433  1.72800000e+03 
566.397  1.68100000e+03 
566.361  1.77400000e+03 
566.325  1.73700000e+03 
566.289  1.78200000e+03 
566.253  1.75600000e+03 
566.217  1.76600000e+03 
566.181  1.85200000e+03 
566.145  1.74300000e+03 
566.109  1.73500000e+03 
566.073  1.84200000e+03 
566.038  1.72400000e+03 
566.002  1.77300000e+03 
565.966  1.75000000e+03 
565.930  1.71400000e+03 
565.894  1.70100000e+03 
565.858  1.77500000e+03 
565.822  1.76500000e+03 
565.786  1.68700000e+03 
565.750  1.79200000e+03 
565.714  1.71100000e+03 
565.678  1.73000000e+03 
565.642  1.73300000e+03 
565.606  1.80300000e+03 
565.570  1.71000000e+03 
565.534  1.71200000e+03 
565.498  1.68200000e+03 
565.463  1.73800000e+03 
565.427  1.77300000e+03 
565.391  1.75800000e+03 
565.355  1.76000000e+03 
565.319  1.63600000e+03 
565.283  1.67200000e+03 
565.247  1.76500000e+03 
565.211  1.67800000e+03 
565.175  1.73800000e+03 
565.139  1.79000000e+03 
565.103  1.74200000e+03 
565.067  1.75000000e+03 
565.031  1.69700000e+03 
564.995  1.83900000e+03 
564.959  1.66700000e+03 
564.923  1.73500000e+03 
564.888  1.74700000e+03 
564.852  1.74100000e+03 
564.816  1.70700000e+03 
564.780  1.74200000e+03 
564.744  1.70800000e+03 
564.708  1.76900000e+03 
564.672  1.71600000e+03 
564.636  1.75500000e+03 
564.600  1.75400000e+03 
564.564  1.69000000e+03 
564.528  1.67600000e+03 
564.492  1.77400000e+03 
564.456  1.76700000e+03 
564.420  1.69500000e+03 
564.384  1.72900000e+03 
564.348  1.65600000e+03 
564.313  1.74000000e+03 
564.277  1.69600000e+03 
564.241  1.74600000e+03 
564.205  1.67100000e+03 
564.169  1.73900000e+03 
564.133  1.75100000e+03 
564.097  1.76700000e+03 
564.061  1.68300000e+03 
564.025  1.69500000e+03 
563.989  1.66600000e+03 
563.953  1.70600000e+03 
563.917  1.63900000e+03 
563.881  1.73300000e+03 
563.845  1.70200000e+03 
563.809  1.68900000e+03 
563.773  1.73700000e+03 
563.738  1.68500000e+03 
563.702  1.69100000e+03 
563.666  1.74800000e+03 
563.630  1.71400000e+03 
563.594  1.69500000e+03 
563.558  1.67100000e+03 
563.522  1.65100000e+03 
563.486  1.66300000e+03 
563.450  1.66200000e+03 
563.414  1.75700000e+03 
563.378  1.66900000e+03 
563.342  1.65800000e+03 
563.306  1.73400000e+03 
563.270  1.67100000e+03 
563.234  1.65800000e+03 
563.198  1.64700000e+03 
563.163  1.67400000e+03 
563.127  1.62100000e+03 
563.091  1.61700000e+03 
563.055  1.67300000e+03 
563.019  1.65100000e+03 
562.983  1.65300000e+03 
562.947  1.66000000e+03 
562.911  1.63100000e+03 
562.875  1.75500000e+03 
562.839  1.67300000e+03 
562.803  1.69800000e+03 
562.767  1.68400000e+03 
562.731  1.71100000e+03 
562.695  1.68700000e+03 
562.659  1.75700000e+03 
562.623  1.63200000e+03 
562.588  1.61500000e+03 
562.552  1.64100000e+03 
562.516  1.66500000e+03 
562.480  1.74700000e+03 
562.444  1.57600000e+03 
562.408  1.67800000e+03 
562.372  1.68400000e+03 
562.336  1.68300000e+03 
562.300  1.69500000e+03 
562.264  1.68800000e+03 
562.228  1.73100000e+03 
562.192  1.65200000e+03 
562.156  1.60100000e+03 
562.120  1.65100000e+03 
562.084  1.63200000e+03 
562.048  1.57100000e+03 
562.013  1.69200000e+03 
561.977  1.63800000e+03 
561.941  1.69200000e+03 
561.905  1.65300000e+03 
561.869  1.66700000e+03 
561.833  1.65400000e+03 
561.797  1.64100000e+03 
561.761  1.70200000e+03 
561.725  1.65800000e+03 
561.689  1.67200000e+03 
561.653  1.61000000e+03 
561.617  1.65500000e+03 
561.581  1.64500000e+03 
561.545  1.72200000e+03 
561.509  1.65400000e+03 
561.473  1.61100000e+03 
561.438  1.69500000e+03 
561.402  1.58600000e+03 
561.366  1.66000000e+03 
561.330  1.62100000e+03 
561.294  1.65600000e+03 
561.258  1.57600000e+03 
561.222  1.67900000e+03 
561.186  1.60900000e+03 
561.150  1.66400000e+03 
561.114  1.61900000e+03 
561.078  1.68900000e+03 
561.042  1.60000000e+03 
561.006  1.67900000e+03 
560.970  1.68500000e+03 
560.934  1.66900000e+03 
560.898  1.60900000e+03 
560.863  1.69500000e+03 
560.827  1.58000000e+03 
560.791  1.54800000e+03 
560.755  1.67500000e+03 
560.719  1.61700000e+03 
560.683  1.60600000e+03 
560.647  1.63900000e+03 
560.611  1.58800000e+03 
560.575  1.63400000e+03 
560.539  1.64100000e+03 
560.503  1.63100000e+03 
560.467  1.60100000e+03 
560.431  1.69200000e+03 
560.395  1.59100000e+03 
560.359  1.67200000e+03 
560.323  1.61800000e+03 
560.288  1.61300000e+03 
560.252  1.72900000e+03 
560.216  1.62000000e+03 
560.180  1.62400000e+03 
560.144  1.59300000e+03 
560.108  1.59400000e+03 
560.072  1.62300000e+03 
560.036  1.62700000e+03 
560.000  1.60500000e+03 
559.964  1.62700000e+03 
559.928  1.61900000e+03 
559.892  1.56000000e+03 
559.856  1.57900000e+03 
559.820  1.59800000e+03 
559.784  1.60800000e+03 
559.748  1.62600000e+03 
559.713  1.56900000e+03 
559.677  1.57000000e+03 
559.641  1.57500000e+03 
559.605  1.60200000e+03 
559.569  1.58600000e+03 
559.533  1.60700000e+03 
559.497  1.58500000e+03 
559.461  1.67800000e+03 
559.425  1.60700000e+03 
559.389  1.61200000e+03 
559.353  1.67900000e+03 
559.317  1.66400000e+03 
559.281  1.54100000e+03 
559.245  1.54800000e+03 
559.209  1.55900000e+03 
559.173  1.63700000e+03 
559.138  1.55300000e+03 
559.102  1.58300000e+03 
559.066  1.58500000e+03 
559.030  1.58300000e+03 
558.994  1.56600000e+03 
558.958  1.54800000e+03 
558.922  1.69200000e+03 
558.886  1.59100000e+03 
558.850  1.62700000e+03 
558.814  1.62900000e+03 
558.778  1.57400000e+03 
558.742  1.58900000e+03 
558.706  1.63100000e+03 
558.670  1.53500000e+03 
558.634  1.58100000e+03 
558.598  1.59100000e+03 
558.563  1.55300000e+03 
558.527  1.59500000e+03 
558.491  1.55800000e+03 
558.455  1.52200000e+03 
558.419  1.56200000e+03 
558.383  1.59500000e+03 
558.347  1.62300000e+03 
558.311  1.51500000e+03 
558.275  1.55200000e+03 
558.239  1.55000000e+03 
558.203  1.55600000e+03 
558.167  1.64600000e+03 
558.131  1.57600000e+03 
558.095  1.53900000e+03 
558.059  1.58800000e+03 
558.023  1.57500000e+03 
557.988  1.51500000e+03 
557.952  1.58600000e+03 
557.916  1.57500000e+03 
557.880  1.54700000e+03 
557.844  1.48500000e+03 
557.808  1.55800000e+03 
557.772  1.54700000e+03 
557.736  1.58700000e+03 
557.700  1.58100000e+03 
557.664  1.54700000e+03 
557.628  1.55500000e+03 
557.592  1.62100000e+03 
557.556  1.55700000e+03 
557.520  1.55200000e+03 
557.484  1.55500000e+03 
557.448  1.55100000e+03 
557.413  1.60600000e+03 
557.377  1.58700000e+03 
557.341  1.52500000e+03 
557.305  1.55800000e+03 
557.269  1.47900000e+03 
557.233  1.56800000e+03 
557.197  1.57300000e+03 
557.161  1.61800000e+03 
557.125  1.50600000e+03 
557.089  1.62100000e+03 
557.053  1.56700000e+03 
557.017  1.50200000e+03 
556.981  1.55500000e+03 
556.945  1.54700000e+03 
556.909  1.55500000e+03 
556.873  1.48800000e+03 
556.838  1.59300000e+03 
556.802  1.51700000e+03 
556.766  1.53900000e+03 
556.730  1.55100000e+03 
556.694  1.48600000e+03 
556.658  1.57500000e+03 
556.622  1.56200000e+03 
556.586  1.47100000e+03 
556.550  1.48500000e+03 
556.514  1.52700000e+03 
556.478  1.45600000e+03 
556.442  1.52800000e+03 
556.406  1.57000000e+03 
556.370  1.58000000e+03 
556.334  1.51700000e+03 
556.298  1.59900000e+03 
556.263  1.52100000e+03 
556.227  1.52100000e+03 
556.191  1.57500000e+03 
556.155  1.55900000e+03 
556.119  1.46800000e+03 
556.083  1.47100000e+03 
556.047  1.50500000e+03 
556.011  1.58200000e+03 
555.975  1.50900000e+03 
555.939  1.45600000e+03 
555.903  1.52900000e+03 
555.867  1.55600000e+03 
555.831  1.55300000e+03 
555.795  1.53700000e+03 
555.759  1.55600000e+03 
555.723  1.54200000e+03 
555.688  1.48700000e+03 
555.652  1.49300000e+03 
555.616  1.53900000e+03 
555.580  1.47600000e+03 
555.544  1.46500000e+03 
555.508  1.48100000e+03 
555.472  1.51400000e+03 
555.436  1.48500000e+03 
555.400  1.56000000e+03 
555.364  1.45900000e+03 
555.328  1.55200000e+03 
555.292  1.51400000e+03 
555.256  1.52500000e+03 
555.220  1.46900000e+03 
555.184  1.48100000e+03 
555.148  1.57600000e+03 
555.113  1.49700000e+03 
555.077  1.52900000e+03 
555.041  1.55700000e+03 
555.005  1.46100000e+03 
554.969  1.53700000e+03 
554.933  1.50100000e+03 
554.897  1.56500000e+03 
554.861  1.48900000e+03 
554.825  1.46500000e+03 
554.789  1.51300000e+03 
554.753  1.46000000e+03 
554.717  1.43300000e+03 
554.681  1.49900000e+03 
554.645  1.47000000e+03 
554.609  1.41400000e+03 
554.573  1.51600000e+03 
554.538  1.48200000e+03 
554.502  1.49300000e+03 
554.466  1.45300000e+03 
554.430  1.41000000e+03 
554.394  1.39700000e+03 
554.358  1.57900000e+03 
554.322  1.48400000e+03 
554.286  1.52800000e+03 
554.250  1.48000000e+03 
554.214  1.42700000e+03 
554.178  1.47500000e+03 
554.142  1.53000000e+03 
554.106  1.39800000e+03 
554.070  1.44400000e+03 
554.034  1.53200000e+03 
553.998  1.45100000e+03 
553.963  1.49700000e+03 
553.927  1.45300000e+03 
553.891  1.41100000e+03 
553.855  1.44800000e+03 
553.819  1.39500000e+03 
553.783  1.45200000e+03 
553.747  1.54000000e+03 
553.711  1.43900000e+03 
553.675  1.45100000e+03 
553.639  1.44900000e+03 
553.603  1.43000000e+03 
553.567  1.45700000e+03 
553.531  1.43500000e+03 
553.495  1.44400000e+03 
553.459  1.40100000e+03 
553.423  1.43000000e+03 
553.388  1.37200000e+03 
553.352  1.46000000e+03 
553.316  1.39300000e+03 
553.280  1.42400000e+03 
553.244  1.52200000e+03 
553.208  1.46500000e+03 
553.172  1.43200000e+03 
553.136  1.50100000e+03 
553.100  1.42300000e+03 
553.064  1.42800000e+03 
553.028  1.45700000e+03 
552.992  1.40000000e+03 
552.956  1.44800000e+03 
552.920  1.41400000e+03 
552.884  1.42200000e+03 
552.848  1.39600000e+03 
552.813  1.32600000e+03 
552.777  1.43400000e+03 
552.741  1.40900000e+03 
552.705  1.41400000e+03 
552.669  1.50400000e+03 
552.633  1.37500000e+03 
552.597  1.35700000e+03 
552.561  1.38500000e+03 
552.525  1.37500000e+03 
552.489  1.38700000e+03 
552.453  1.41900000e+03 
552.417  1.38900000e+03 
552.381  1.47900000e+03 
552.345  1.35600000e+03 
552.309  1.34000000e+03 
552.273  1.42900000e+03 
552.238  1.42000000e+03 
552.202  1.45800000e+03 
552.166  1.47300000e+03 
552.130  1.40800000e+03 
552.094  1.42500000e+03 
552.058  1.40500000e+03 
552.022  1.41700000e+03 
551.986  1.36100000e+03 
551.950  1.38500000e+03 
551.914  1.38100000e+03 
551.878  1.40600000e+03 
551.842  1.41400000e+03 
551.806  1.44900000e+03 
551.770  1.34800000e+03 
551.734  1.36600000e+03 
551.698  1.33500000e+03 
551.663  1.45100000e+03 
551.627  1.40300000e+03 
551.591  1.36800000e+03 
551.555  1.41700000e+03 
551.519  1.39200000e+03 
551.483  1.41200000e+03 
551.447  1.36300000e+03 
551.411  1.35500000e+03 
551.375  1.33700000e+03 
551.339  1.41900000e+03 
551.303  1.39400000e+03 
551.267  1.34800000e+03 
551.231  1.30300000e+03 
551.195  1.41300000e+03 
551.159  1.29800000e+03 
551.123  1.33600000e+03 
551.088  1.29600000e+03 
551.052  1.37000000e+03 
551.016  1.37100000e+03 
550.980  1.43600000e+03 
550.944  1.43500000e+03 
550.908  1.36600000e+03 
550.872  1.37200000e+03 
550.836  1.40100000e+03 
550.800  1.34200000e+03 
550.764  1.50300000e+03 
550.728  1.39000000e+03 
550.692  1.30500000e+03 
550.656  1.33900000e+03 
550.620  1.36200000e+03 
550.584  1.36500000e+03 
550.548  1.36300000e+03 
550.513  1.38100000e+03 
550.477  1.32500000e+03 
550.441  1.40200000e+03 
550.405  1.31800000e+03 
550.369  1.38000000e+03 
550.333  1.32000000e+03 
550.297  1.36900000e+03 
550.261  1.43800000e+03 
550.225  1.31700000e+03 
550.189  1.31700000e+03 
550.153  1.30300000e+03 
550.117  1.34300000e+03 
550.081  1.36300000e+03 
550.045  1.39100000e+03 
550.009  1.33500000e+03 

