EXPERIMENT FILE
Version = 2

[ Experiment Parameters ]
Experiment Description= <none> 
Number_of_Regions_in_Experiment= 1 

Original_File_name= C:\alexesca\data\0311ang0.xps 
Instrument= HP ESCA West
Date= 03-11-2013
Time=  18:33:48

[ Layer Parameters ]
Layer_Type= XPS

[ Region 1 Parameters ]
Region_Description = Au 4f Dithered 92eV Center 10eV Width
BEcenter(eV) = 92.000000
BEwidth(eV) = 10.000000
BEstep(eV) = 0.035938
Dwell_Time(sec) = 1.000000
N_o_scans = 1  
N_o_Channels = 278  
Scan_mode = 0  (DITHERED)

[ L= 1 R= 1 ]
BEcenter= 92.000  
BEwidth= -9.955  
Excitation= 1486.600
Time_p_channel= 256.000 
Size= 278
96.977   8.18000000e+02 
96.941   8.97000000e+02 
96.905   8.53000000e+02 
96.870   9.50000000e+02 
96.834   9.06000000e+02 
96.798   9.03000000e+02 
96.762   9.60000000e+02 
96.726   9.56000000e+02 
96.690   9.95000000e+02 
96.654   9.97000000e+02 
96.618   9.98000000e+02 
96.582   1.07000000e+03 
96.546   1.02100000e+03 
96.510   1.11900000e+03 
96.474   1.19400000e+03 
96.438   1.19800000e+03 
96.402   1.19900000e+03 
96.366   1.27700000e+03 
96.330   1.28500000e+03 
96.295   1.27700000e+03 
96.259   1.42900000e+03 
96.223   1.44100000e+03 
96.187   1.45300000e+03 
96.151   1.47000000e+03 
96.115   1.54800000e+03 
96.079   1.62900000e+03 
96.043   1.74600000e+03 
96.007   1.73600000e+03 
95.971   1.79500000e+03 
95.935   1.89700000e+03 
95.899   1.91600000e+03 
95.863   1.99600000e+03 
95.827   2.09000000e+03 
95.791   2.21900000e+03 
95.755   2.29000000e+03 
95.720   2.42300000e+03 
95.684   2.40700000e+03 
95.648   2.53600000e+03 
95.612   2.58200000e+03 
95.576   2.69700000e+03 
95.540   2.81500000e+03 
95.504   2.93500000e+03 
95.468   2.94900000e+03 
95.432   2.99600000e+03 
95.396   3.12700000e+03 
95.360   3.13900000e+03 
95.324   3.29700000e+03 
95.288   3.50000000e+03 
95.252   3.42700000e+03 
95.216   3.56000000e+03 
95.180   3.55800000e+03 
95.145   3.59600000e+03 
95.109   3.57600000e+03 
95.073   3.63700000e+03 
95.037   3.70100000e+03 
95.001   3.60700000e+03 
94.965   3.52500000e+03 
94.929   3.50600000e+03 
94.893   3.30700000e+03 
94.857   3.16500000e+03 
94.821   2.94200000e+03 
94.785   2.81900000e+03 
94.749   2.66000000e+03 
94.713   2.51100000e+03 
94.677   2.25300000e+03 
94.641   2.08900000e+03 
94.605   1.89400000e+03 
94.570   1.81600000e+03 
94.534   1.61900000e+03 
94.498   1.51600000e+03 
94.462   1.43300000e+03 
94.426   1.27000000e+03 
94.390   1.20000000e+03 
94.354   1.15100000e+03 
94.318   1.08000000e+03 
94.282   9.26000000e+02 
94.246   9.34000000e+02 
94.210   9.67000000e+02 
94.174   9.15000000e+02 
94.138   8.52000000e+02 
94.102   8.34000000e+02 
94.066   8.09000000e+02 
94.030   8.19000000e+02 
93.995   8.29000000e+02 
93.959   7.46000000e+02 
93.923   7.63000000e+02 
93.887   6.90000000e+02 
93.851   7.33000000e+02 
93.815   6.95000000e+02 
93.779   7.78000000e+02 
93.743   7.29000000e+02 
93.707   8.03000000e+02 
93.671   7.41000000e+02 
93.635   7.22000000e+02 
93.599   7.26000000e+02 
93.563   7.89000000e+02 
93.527   7.81000000e+02 
93.491   7.46000000e+02 
93.455   7.59000000e+02 
93.420   7.69000000e+02 
93.384   8.05000000e+02 
93.348   8.23000000e+02 
93.312   8.42000000e+02 
93.276   8.50000000e+02 
93.240   8.83000000e+02 
93.204   8.54000000e+02 
93.168   8.48000000e+02 
93.132   8.75000000e+02 
93.096   9.81000000e+02 
93.060   1.00100000e+03 
93.024   1.02100000e+03 
92.988   9.67000000e+02 
92.952   1.04200000e+03 
92.916   1.12100000e+03 
92.880   1.13800000e+03 
92.845   1.18700000e+03 
92.809   1.23000000e+03 
92.773   1.22900000e+03 
92.737   1.31200000e+03 
92.701   1.35500000e+03 
92.665   1.33600000e+03 
92.629   1.41300000e+03 
92.593   1.45500000e+03 
92.557   1.52400000e+03 
92.521   1.66400000e+03 
92.485   1.61000000e+03 
92.449   1.76800000e+03 
92.413   1.84100000e+03 
92.377   1.89000000e+03 
92.341   1.88900000e+03 
92.305   1.93800000e+03 
92.270   2.23000000e+03 
92.234   2.21300000e+03 
92.198   2.33800000e+03 
92.162   2.36400000e+03 
92.126   2.55300000e+03 
92.090   2.54200000e+03 
92.054   2.79100000e+03 
92.018   2.80200000e+03 
91.982   3.01100000e+03 
91.946   2.99200000e+03 
91.910   3.13000000e+03 
91.874   3.30800000e+03 
91.838   3.46000000e+03 
91.802   3.55600000e+03 
91.766   3.72100000e+03 
91.730   3.76400000e+03 
91.695   3.83800000e+03 
91.659   4.02600000e+03 
91.623   4.08100000e+03 
91.587   4.06500000e+03 
91.551   4.25700000e+03 
91.515   4.29600000e+03 
91.479   4.34100000e+03 
91.443   4.44200000e+03 
91.407   4.31600000e+03 
91.371   4.32300000e+03 
91.335   4.31400000e+03 
91.299   4.18600000e+03 
91.263   4.08500000e+03 
91.227   3.88700000e+03 
91.191   3.79100000e+03 
91.155   3.48300000e+03 
91.120   3.34600000e+03 
91.084   3.13200000e+03 
91.048   2.84500000e+03 
91.012   2.66600000e+03 
90.976   2.26400000e+03 
90.940   2.07300000e+03 
90.904   1.84400000e+03 
90.868   1.72700000e+03 
90.832   1.45800000e+03 
90.796   1.31600000e+03 
90.760   1.19200000e+03 
90.724   1.13200000e+03 
90.688   9.70000000e+02 
90.652   8.94000000e+02 
90.616   7.96000000e+02 
90.580   7.92000000e+02 
90.545   7.49000000e+02 
90.509   6.81000000e+02 
90.473   6.39000000e+02 
90.437   6.24000000e+02 
90.401   5.75000000e+02 
90.365   5.45000000e+02 
90.329   5.39000000e+02 
90.293   5.20000000e+02 
90.257   5.49000000e+02 
90.221   4.71000000e+02 
90.185   4.90000000e+02 
90.149   4.52000000e+02 
90.113   4.15000000e+02 
90.077   4.49000000e+02 
90.041   4.13000000e+02 
90.005   3.92000000e+02 
89.970   3.83000000e+02 
89.934   4.29000000e+02 
89.898   3.88000000e+02 
89.862   3.78000000e+02 
89.826   3.92000000e+02 
89.790   3.81000000e+02 
89.754   3.95000000e+02 
89.718   3.67000000e+02 
89.682   3.42000000e+02 
89.646   3.46000000e+02 
89.610   3.60000000e+02 
89.574   3.23000000e+02 
89.538   3.36000000e+02 
89.502   3.34000000e+02 
89.466   3.37000000e+02 
89.430   3.38000000e+02 
89.395   3.31000000e+02 
89.359   3.18000000e+02 
89.323   3.20000000e+02 
89.287   3.56000000e+02 
89.251   3.09000000e+02 
89.215   3.13000000e+02 
89.179   3.05000000e+02 
89.143   3.04000000e+02 
89.107   2.94000000e+02 
89.071   2.69000000e+02 
89.035   3.04000000e+02 
88.999   2.89000000e+02 
88.963   2.98000000e+02 
88.927   3.05000000e+02 
88.891   3.34000000e+02 
88.855   3.25000000e+02 
88.820   3.07000000e+02 
88.784   2.88000000e+02 
88.748   3.10000000e+02 
88.712   2.79000000e+02 
88.676   2.86000000e+02 
88.640   2.62000000e+02 
88.604   3.14000000e+02 
88.568   2.54000000e+02 
88.532   3.07000000e+02 
88.496   2.64000000e+02 
88.460   2.99000000e+02 
88.424   2.86000000e+02 
88.388   2.70000000e+02 
88.352   3.05000000e+02 
88.316   2.65000000e+02 
88.280   2.72000000e+02 
88.245   2.42000000e+02 
88.209   2.77000000e+02 
88.173   2.82000000e+02 
88.137   2.63000000e+02 
88.101   2.37000000e+02 
88.065   2.85000000e+02 
88.029   2.68000000e+02 
87.993   2.60000000e+02 
87.957   2.65000000e+02 
87.921   2.46000000e+02 
87.885   2.82000000e+02 
87.849   3.07000000e+02 
87.813   2.19000000e+02 
87.777   2.70000000e+02 
87.741   2.63000000e+02 
87.705   2.52000000e+02 
87.670   2.61000000e+02 
87.634   2.75000000e+02 
87.598   2.55000000e+02 
87.562   2.71000000e+02 
87.526   2.51000000e+02 
87.490   2.59000000e+02 
87.454   2.65000000e+02 
87.418   2.73000000e+02 
87.382   2.61000000e+02 
87.346   2.30000000e+02 
87.310   2.80000000e+02 
87.274   2.69000000e+02 
87.238   2.41000000e+02 
87.202   2.87000000e+02 
87.166   2.74000000e+02 
87.130   2.27000000e+02 
87.095   2.63000000e+02 
87.059   2.70000000e+02 
87.023   2.28000000e+02 

