EXPERIMENT FILE
Version = 2

[ Experiment Parameters ]
Experiment Description= <none> 
Number_of_Regions_in_Experiment= 1 

Original_File_name= C:\alexesca\data\0311ang30.xps 
Instrument= HP ESCA West
Date= 03-11-2013
Time=  18:23:37

[ Layer Parameters ]
Layer_Type= XPS

[ Region 1 Parameters ]
Region_Description = Au 4f Dithered 92eV Center 10eV Width
BEcenter(eV) = 92.000000
BEwidth(eV) = 10.000000
BEstep(eV) = 0.035938
Dwell_Time(sec) = 1.000000
N_o_scans = 1  
N_o_Channels = 278  
Scan_mode = 0  (DITHERED)

[ L= 1 R= 1 ]
BEcenter= 92.000  
BEwidth= -9.955  
Excitation= 1486.600
Time_p_channel= 256.000 
Size= 278
96.977   7.00000000e+01 
96.941   6.50000000e+01 
96.905   6.90000000e+01 
96.870   9.00000000e+01 
96.834   6.40000000e+01 
96.798   6.10000000e+01 
96.762   6.50000000e+01 
96.726   7.00000000e+01 
96.690   7.00000000e+01 
96.654   8.60000000e+01 
96.618   1.08000000e+02 
96.582   8.00000000e+01 
96.546   9.10000000e+01 
96.510   8.30000000e+01 
96.474   7.70000000e+01 
96.438   8.20000000e+01 
96.402   9.30000000e+01 
96.366   8.50000000e+01 
96.330   9.90000000e+01 
96.295   8.00000000e+01 
96.259   7.40000000e+01 
96.223   8.50000000e+01 
96.187   9.60000000e+01 
96.151   8.70000000e+01 
96.115   1.09000000e+02 
96.079   9.30000000e+01 
96.043   8.80000000e+01 
96.007   7.20000000e+01 
95.971   9.70000000e+01 
95.935   1.13000000e+02 
95.899   9.60000000e+01 
95.863   1.06000000e+02 
95.827   1.07000000e+02 
95.791   1.34000000e+02 
95.755   1.26000000e+02 
95.720   1.11000000e+02 
95.684   1.29000000e+02 
95.648   1.58000000e+02 
95.612   1.61000000e+02 
95.576   1.46000000e+02 
95.540   1.60000000e+02 
95.504   1.44000000e+02 
95.468   1.87000000e+02 
95.432   1.65000000e+02 
95.396   1.64000000e+02 
95.360   1.73000000e+02 
95.324   1.89000000e+02 
95.288   2.02000000e+02 
95.252   1.96000000e+02 
95.216   2.45000000e+02 
95.180   2.31000000e+02 
95.145   2.18000000e+02 
95.109   2.62000000e+02 
95.073   2.48000000e+02 
95.037   2.63000000e+02 
95.001   3.00000000e+02 
94.965   2.91000000e+02 
94.929   3.03000000e+02 
94.893   3.29000000e+02 
94.857   3.52000000e+02 
94.821   3.41000000e+02 
94.785   3.45000000e+02 
94.749   3.30000000e+02 
94.713   3.40000000e+02 
94.677   3.31000000e+02 
94.641   3.28000000e+02 
94.605   3.33000000e+02 
94.570   3.42000000e+02 
94.534   3.33000000e+02 
94.498   3.45000000e+02 
94.462   3.06000000e+02 
94.426   3.11000000e+02 
94.390   2.98000000e+02 
94.354   2.88000000e+02 
94.318   2.77000000e+02 
94.282   2.30000000e+02 
94.246   2.38000000e+02 
94.210   2.11000000e+02 
94.174   2.20000000e+02 
94.138   2.08000000e+02 
94.102   2.03000000e+02 
94.066   1.85000000e+02 
94.030   1.63000000e+02 
93.995   1.47000000e+02 
93.959   1.48000000e+02 
93.923   1.25000000e+02 
93.887   1.30000000e+02 
93.851   1.09000000e+02 
93.815   9.70000000e+01 
93.779   9.80000000e+01 
93.743   9.40000000e+01 
93.707   1.11000000e+02 
93.671   7.80000000e+01 
93.635   9.40000000e+01 
93.599   9.30000000e+01 
93.563   8.20000000e+01 
93.527   8.40000000e+01 
93.491   8.10000000e+01 
93.455   8.70000000e+01 
93.420   7.90000000e+01 
93.384   1.04000000e+02 
93.348   8.20000000e+01 
93.312   7.60000000e+01 
93.276   8.10000000e+01 
93.240   9.40000000e+01 
93.204   7.90000000e+01 
93.168   8.20000000e+01 
93.132   6.60000000e+01 
93.096   7.70000000e+01 
93.060   7.90000000e+01 
93.024   7.60000000e+01 
92.988   6.90000000e+01 
92.952   9.60000000e+01 
92.916   9.40000000e+01 
92.880   7.60000000e+01 
92.845   8.80000000e+01 
92.809   7.60000000e+01 
92.773   8.20000000e+01 
92.737   8.30000000e+01 
92.701   7.50000000e+01 
92.665   8.30000000e+01 
92.629   6.40000000e+01 
92.593   7.80000000e+01 
92.557   8.20000000e+01 
92.521   9.50000000e+01 
92.485   8.70000000e+01 
92.449   1.17000000e+02 
92.413   7.90000000e+01 
92.377   9.30000000e+01 
92.341   1.01000000e+02 
92.305   8.60000000e+01 
92.270   9.70000000e+01 
92.234   9.20000000e+01 
92.198   9.10000000e+01 
92.162   1.08000000e+02 
92.126   9.90000000e+01 
92.090   1.18000000e+02 
92.054   1.13000000e+02 
92.018   1.32000000e+02 
91.982   1.26000000e+02 
91.946   1.71000000e+02 
91.910   1.41000000e+02 
91.874   1.65000000e+02 
91.838   1.65000000e+02 
91.802   1.57000000e+02 
91.766   1.85000000e+02 
91.730   2.04000000e+02 
91.695   2.01000000e+02 
91.659   2.14000000e+02 
91.623   2.10000000e+02 
91.587   2.28000000e+02 
91.551   2.44000000e+02 
91.515   2.22000000e+02 
91.479   2.68000000e+02 
91.443   2.67000000e+02 
91.407   3.04000000e+02 
91.371   2.90000000e+02 
91.335   3.06000000e+02 
91.299   3.30000000e+02 
91.263   3.37000000e+02 
91.227   3.79000000e+02 
91.191   3.72000000e+02 
91.155   3.72000000e+02 
91.120   3.84000000e+02 
91.084   3.97000000e+02 
91.048   4.09000000e+02 
91.012   4.21000000e+02 
90.976   4.02000000e+02 
90.940   4.05000000e+02 
90.904   3.90000000e+02 
90.868   4.00000000e+02 
90.832   4.11000000e+02 
90.796   3.71000000e+02 
90.760   3.62000000e+02 
90.724   3.75000000e+02 
90.688   2.95000000e+02 
90.652   3.22000000e+02 
90.616   2.91000000e+02 
90.580   2.68000000e+02 
90.545   2.20000000e+02 
90.509   2.34000000e+02 
90.473   2.16000000e+02 
90.437   1.82000000e+02 
90.401   2.05000000e+02 
90.365   1.67000000e+02 
90.329   1.61000000e+02 
90.293   1.31000000e+02 
90.257   1.28000000e+02 
90.221   1.14000000e+02 
90.185   1.04000000e+02 
90.149   8.60000000e+01 
90.113   8.80000000e+01 
90.077   8.70000000e+01 
90.041   6.90000000e+01 
90.005   6.90000000e+01 
89.970   7.90000000e+01 
89.934   5.80000000e+01 
89.898   6.30000000e+01 
89.862   6.70000000e+01 
89.826   4.90000000e+01 
89.790   6.30000000e+01 
89.754   4.60000000e+01 
89.718   4.40000000e+01 
89.682   5.90000000e+01 
89.646   5.10000000e+01 
89.610   4.40000000e+01 
89.574   4.20000000e+01 
89.538   4.30000000e+01 
89.502   4.50000000e+01 
89.466   4.80000000e+01 
89.430   4.70000000e+01 
89.395   3.70000000e+01 
89.359   5.60000000e+01 
89.323   3.30000000e+01 
89.287   4.80000000e+01 
89.251   5.30000000e+01 
89.215   3.60000000e+01 
89.179   4.50000000e+01 
89.143   3.50000000e+01 
89.107   3.50000000e+01 
89.071   4.80000000e+01 
89.035   3.90000000e+01 
88.999   4.10000000e+01 
88.963   5.40000000e+01 
88.927   4.70000000e+01 
88.891   4.80000000e+01 
88.855   3.20000000e+01 
88.820   3.70000000e+01 
88.784   3.30000000e+01 
88.748   3.50000000e+01 
88.712   3.90000000e+01 
88.676   4.60000000e+01 
88.640   3.10000000e+01 
88.604   3.90000000e+01 
88.568   3.30000000e+01 
88.532   4.40000000e+01 
88.496   2.70000000e+01 
88.460   4.50000000e+01 
88.424   3.90000000e+01 
88.388   5.00000000e+01 
88.352   3.50000000e+01 
88.316   3.10000000e+01 
88.280   3.60000000e+01 
88.245   2.60000000e+01 
88.209   3.90000000e+01 
88.173   4.00000000e+01 
88.137   3.10000000e+01 
88.101   3.10000000e+01 
88.065   4.20000000e+01 
88.029   2.90000000e+01 
87.993   3.50000000e+01 
87.957   3.40000000e+01 
87.921   4.20000000e+01 
87.885   1.90000000e+01 
87.849   2.90000000e+01 
87.813   3.40000000e+01 
87.777   3.40000000e+01 
87.741   3.80000000e+01 
87.705   4.00000000e+01 
87.670   3.80000000e+01 
87.634   3.00000000e+01 
87.598   3.70000000e+01 
87.562   2.40000000e+01 
87.526   3.10000000e+01 
87.490   4.00000000e+01 
87.454   3.50000000e+01 
87.418   3.90000000e+01 
87.382   4.10000000e+01 
87.346   3.40000000e+01 
87.310   3.20000000e+01 
87.274   2.80000000e+01 
87.238   4.70000000e+01 
87.202   2.80000000e+01 
87.166   3.10000000e+01 
87.130   3.20000000e+01 
87.095   4.70000000e+01 
87.059   4.00000000e+01 
87.023   2.70000000e+01 

