EXPERIMENT FILE
Version = 2

[ Experiment Parameters ]
Experiment Description= <none> 
Number_of_Regions_in_Experiment= 1 

Original_File_name= C:\alexesca\data\0415ang0.xps 
Instrument= HP ESCA West
Date= 04-15-2013
Time=  17:51:59

[ Layer Parameters ]
Layer_Type= XPS

[ Region 1 Parameters ]
Region_Description = Au 4f Dithered 92eV Center 10eV Width
BEcenter(eV) = 92.000000
BEwidth(eV) = 10.000000
BEstep(eV) = 0.035937
Dwell_Time(sec) = 1.000000
N_o_scans = 1  
N_o_Channels = 278  
Scan_mode = 0  (DITHERED)

[ L= 1 R= 1 ]
BEcenter= 92.000  
BEwidth= -9.955  
Excitation= 1486.600
Time_p_channel= 256.000 
Size= 278
96.977   1.02200000e+03 
96.941   1.02500000e+03 
96.905   1.08000000e+03 
96.870   1.10000000e+03 
96.834   1.09900000e+03 
96.798   1.08700000e+03 
96.762   1.10700000e+03 
96.726   1.20600000e+03 
96.690   1.17900000e+03 
96.654   1.14800000e+03 
96.618   1.21900000e+03 
96.582   1.26400000e+03 
96.546   1.22300000e+03 
96.510   1.33000000e+03 
96.474   1.33600000e+03 
96.438   1.41900000e+03 
96.402   1.40900000e+03 
96.366   1.42200000e+03 
96.330   1.46600000e+03 
96.295   1.50000000e+03 
96.259   1.55600000e+03 
96.223   1.60400000e+03 
96.187   1.60900000e+03 
96.151   1.74500000e+03 
96.115   1.76100000e+03 
96.079   1.88300000e+03 
96.043   1.90100000e+03 
96.007   1.97500000e+03 
95.971   2.08000000e+03 
95.935   2.14300000e+03 
95.899   2.13100000e+03 
95.863   2.17500000e+03 
95.827   2.36800000e+03 
95.791   2.41200000e+03 
95.755   2.47800000e+03 
95.720   2.48000000e+03 
95.684   2.63300000e+03 
95.648   2.72500000e+03 
95.612   2.92300000e+03 
95.576   2.82400000e+03 
95.540   3.00400000e+03 
95.504   3.23200000e+03 
95.468   3.20100000e+03 
95.432   3.32600000e+03 
95.396   3.39800000e+03 
95.360   3.45400000e+03 
95.324   3.45600000e+03 
95.288   3.70800000e+03 
95.252   3.89700000e+03 
95.216   3.88500000e+03 
95.180   4.07800000e+03 
95.145   4.28000000e+03 
95.109   4.16300000e+03 
95.073   4.30800000e+03 
95.037   4.33900000e+03 
95.001   4.43900000e+03 
94.965   4.46400000e+03 
94.929   4.68000000e+03 
94.893   4.50800000e+03 
94.857   4.49600000e+03 
94.821   4.66300000e+03 
94.785   4.56400000e+03 
94.749   4.47400000e+03 
94.713   4.49200000e+03 
94.677   4.22100000e+03 
94.641   4.13300000e+03 
94.605   3.97200000e+03 
94.570   3.77100000e+03 
94.534   3.52000000e+03 
94.498   3.39600000e+03 
94.462   3.15800000e+03 
94.426   3.03100000e+03 
94.390   2.74600000e+03 
94.354   2.44600000e+03 
94.318   2.30800000e+03 
94.282   2.16800000e+03 
94.246   2.00800000e+03 
94.210   1.78600000e+03 
94.174   1.71600000e+03 
94.138   1.47800000e+03 
94.102   1.53400000e+03 
94.066   1.35600000e+03 
94.030   1.33900000e+03 
93.995   1.17400000e+03 
93.959   1.24600000e+03 
93.923   1.14800000e+03 
93.887   1.13600000e+03 
93.851   1.12200000e+03 
93.815   1.03900000e+03 
93.779   9.98000000e+02 
93.743   1.06500000e+03 
93.707   1.00900000e+03 
93.671   1.03000000e+03 
93.635   1.03900000e+03 
93.599   9.82000000e+02 
93.563   9.62000000e+02 
93.527   9.82000000e+02 
93.491   9.92000000e+02 
93.455   9.93000000e+02 
93.420   1.07100000e+03 
93.384   9.88000000e+02 
93.348   1.03000000e+03 
93.312   1.02300000e+03 
93.276   1.01600000e+03 
93.240   1.05800000e+03 
93.204   1.08300000e+03 
93.168   1.06700000e+03 
93.132   1.06200000e+03 
93.096   1.07900000e+03 
93.060   1.09600000e+03 
93.024   1.20900000e+03 
92.988   1.15500000e+03 
92.952   1.21000000e+03 
92.916   1.22600000e+03 
92.880   1.33900000e+03 
92.845   1.33000000e+03 
92.809   1.35100000e+03 
92.773   1.38000000e+03 
92.737   1.42600000e+03 
92.701   1.42200000e+03 
92.665   1.52600000e+03 
92.629   1.54700000e+03 
92.593   1.67500000e+03 
92.557   1.71700000e+03 
92.521   1.70900000e+03 
92.485   1.79400000e+03 
92.449   1.94400000e+03 
92.413   2.03200000e+03 
92.377   2.06200000e+03 
92.341   2.10200000e+03 
92.305   2.20900000e+03 
92.270   2.25100000e+03 
92.234   2.32700000e+03 
92.198   2.39900000e+03 
92.162   2.60400000e+03 
92.126   2.63400000e+03 
92.090   2.74300000e+03 
92.054   2.97200000e+03 
92.018   2.91600000e+03 
91.982   3.05400000e+03 
91.946   3.23700000e+03 
91.910   3.38300000e+03 
91.874   3.47100000e+03 
91.838   3.56600000e+03 
91.802   3.73600000e+03 
91.766   4.03000000e+03 
91.730   4.09900000e+03 
91.695   4.05900000e+03 
91.659   4.24800000e+03 
91.623   4.36400000e+03 
91.587   4.53400000e+03 
91.551   4.71700000e+03 
91.515   4.81000000e+03 
91.479   4.88100000e+03 
91.443   5.06400000e+03 
91.407   5.22500000e+03 
91.371   5.18500000e+03 
91.335   5.39700000e+03 
91.299   5.33300000e+03 
91.263   5.32600000e+03 
91.227   5.51700000e+03 
91.191   5.40400000e+03 
91.155   5.52400000e+03 
91.120   5.43900000e+03 
91.084   5.28400000e+03 
91.048   5.17900000e+03 
91.012   5.22200000e+03 
90.976   4.80600000e+03 
90.940   4.70500000e+03 
90.904   4.41400000e+03 
90.868   4.11500000e+03 
90.832   3.91900000e+03 
90.796   3.60000000e+03 
90.760   3.38300000e+03 
90.724   3.07500000e+03 
90.688   2.77300000e+03 
90.652   2.56700000e+03 
90.616   2.23900000e+03 
90.580   2.01900000e+03 
90.545   1.85600000e+03 
90.509   1.68600000e+03 
90.473   1.54700000e+03 
90.437   1.37600000e+03 
90.401   1.28300000e+03 
90.365   1.14000000e+03 
90.329   1.05900000e+03 
90.293   9.53000000e+02 
90.257   9.33000000e+02 
90.221   8.75000000e+02 
90.185   7.92000000e+02 
90.149   7.37000000e+02 
90.113   7.77000000e+02 
90.077   6.80000000e+02 
90.041   6.99000000e+02 
90.005   6.44000000e+02 
89.970   6.06000000e+02 
89.934   5.87000000e+02 
89.898   5.70000000e+02 
89.862   5.98000000e+02 
89.826   5.68000000e+02 
89.790   5.37000000e+02 
89.754   4.99000000e+02 
89.718   5.06000000e+02 
89.682   5.12000000e+02 
89.646   4.84000000e+02 
89.610   4.65000000e+02 
89.574   4.97000000e+02 
89.538   4.79000000e+02 
89.502   4.52000000e+02 
89.466   4.81000000e+02 
89.430   4.74000000e+02 
89.395   4.37000000e+02 
89.359   4.54000000e+02 
89.323   4.09000000e+02 
89.287   4.42000000e+02 
89.251   4.16000000e+02 
89.215   4.30000000e+02 
89.179   4.12000000e+02 
89.143   4.16000000e+02 
89.107   3.81000000e+02 
89.071   3.87000000e+02 
89.035   3.83000000e+02 
88.999   3.65000000e+02 
88.963   3.87000000e+02 
88.927   3.77000000e+02 
88.891   3.86000000e+02 
88.855   3.83000000e+02 
88.820   4.17000000e+02 
88.784   3.78000000e+02 
88.748   3.63000000e+02 
88.712   3.83000000e+02 
88.676   3.76000000e+02 
88.640   3.50000000e+02 
88.604   3.83000000e+02 
88.568   3.79000000e+02 
88.532   3.63000000e+02 
88.496   3.61000000e+02 
88.460   3.61000000e+02 
88.424   3.65000000e+02 
88.388   3.75000000e+02 
88.352   3.36000000e+02 
88.316   3.43000000e+02 
88.280   3.72000000e+02 
88.245   3.24000000e+02 
88.209   3.76000000e+02 
88.173   3.59000000e+02 
88.137   3.57000000e+02 
88.101   3.40000000e+02 
88.065   3.52000000e+02 
88.029   3.39000000e+02 
87.993   3.12000000e+02 
87.957   3.32000000e+02 
87.921   3.55000000e+02 
87.885   3.26000000e+02 
87.849   3.48000000e+02 
87.813   3.15000000e+02 
87.777   3.29000000e+02 
87.741   3.25000000e+02 
87.705   3.59000000e+02 
87.670   3.07000000e+02 
87.634   3.21000000e+02 
87.598   3.38000000e+02 
87.562   3.22000000e+02 
87.526   3.37000000e+02 
87.490   3.42000000e+02 
87.454   3.30000000e+02 
87.418   3.53000000e+02 
87.382   3.34000000e+02 
87.346   3.31000000e+02 
87.310   3.39000000e+02 
87.274   3.24000000e+02 
87.238   3.58000000e+02 
87.202   3.19000000e+02 
87.166   3.20000000e+02 
87.130   2.92000000e+02 
87.095   3.67000000e+02 
87.059   3.39000000e+02 
87.023   2.92000000e+02 

