EXPERIMENT FILE
Version = 2

[ Experiment Parameters ]
Experiment Description= <none> 
Number_of_Regions_in_Experiment= 1 

Original_File_name= C:\alexesca\data\0422angNeg30.xps 
Instrument= HP ESCA West
Date= 04-22-2013
Time=  15:09:46

[ Layer Parameters ]
Layer_Type= XPS

[ Region 1 Parameters ]
Region_Description = Au 4f Dithered 92eV Center 10eV Width
BEcenter(eV) = 92.000000
BEwidth(eV) = 10.000000
BEstep(eV) = 0.035937
Dwell_Time(sec) = 1.000000
N_o_scans = 1  
N_o_Channels = 278  
Scan_mode = 0  (DITHERED)

[ L= 1 R= 1 ]
BEcenter= 92.000  
BEwidth= -9.955  
Excitation= 1486.600
Time_p_channel= 256.000 
Size= 278
96.977   2.86000000e+02 
96.941   3.07000000e+02 
96.905   2.92000000e+02 
96.870   3.23000000e+02 
96.834   3.20000000e+02 
96.798   3.33000000e+02 
96.762   3.30000000e+02 
96.726   3.16000000e+02 
96.690   3.31000000e+02 
96.654   3.56000000e+02 
96.618   2.98000000e+02 
96.582   3.68000000e+02 
96.546   3.51000000e+02 
96.510   3.36000000e+02 
96.474   3.92000000e+02 
96.438   4.07000000e+02 
96.402   4.34000000e+02 
96.366   4.37000000e+02 
96.330   4.24000000e+02 
96.295   4.32000000e+02 
96.259   4.56000000e+02 
96.223   4.85000000e+02 
96.187   4.98000000e+02 
96.151   5.76000000e+02 
96.115   5.60000000e+02 
96.079   5.48000000e+02 
96.043   5.85000000e+02 
96.007   6.59000000e+02 
95.971   6.86000000e+02 
95.935   6.80000000e+02 
95.899   6.85000000e+02 
95.863   7.55000000e+02 
95.827   7.90000000e+02 
95.791   8.61000000e+02 
95.755   8.45000000e+02 
95.720   9.31000000e+02 
95.684   9.08000000e+02 
95.648   1.01600000e+03 
95.612   1.03800000e+03 
95.576   1.10600000e+03 
95.540   1.13100000e+03 
95.504   1.15200000e+03 
95.468   1.17600000e+03 
95.432   1.25200000e+03 
95.396   1.24200000e+03 
95.360   1.30800000e+03 
95.324   1.33600000e+03 
95.288   1.31200000e+03 
95.252   1.29900000e+03 
95.216   1.35800000e+03 
95.180   1.29300000e+03 
95.145   1.28700000e+03 
95.109   1.19600000e+03 
95.073   1.17900000e+03 
95.037   1.16100000e+03 
95.001   1.07200000e+03 
94.965   1.03600000e+03 
94.929   9.41000000e+02 
94.893   8.55000000e+02 
94.857   7.65000000e+02 
94.821   7.48000000e+02 
94.785   6.68000000e+02 
94.749   6.42000000e+02 
94.713   5.86000000e+02 
94.677   5.17000000e+02 
94.641   4.92000000e+02 
94.605   4.57000000e+02 
94.570   4.31000000e+02 
94.534   3.84000000e+02 
94.498   3.73000000e+02 
94.462   3.37000000e+02 
94.426   3.51000000e+02 
94.390   3.16000000e+02 
94.354   3.05000000e+02 
94.318   2.79000000e+02 
94.282   3.03000000e+02 
94.246   2.87000000e+02 
94.210   3.01000000e+02 
94.174   2.85000000e+02 
94.138   2.66000000e+02 
94.102   2.35000000e+02 
94.066   2.75000000e+02 
94.030   2.81000000e+02 
93.995   2.53000000e+02 
93.959   2.60000000e+02 
93.923   2.80000000e+02 
93.887   2.73000000e+02 
93.851   2.32000000e+02 
93.815   2.58000000e+02 
93.779   2.82000000e+02 
93.743   2.81000000e+02 
93.707   2.44000000e+02 
93.671   2.35000000e+02 
93.635   2.42000000e+02 
93.599   2.22000000e+02 
93.563   2.34000000e+02 
93.527   2.46000000e+02 
93.491   2.42000000e+02 
93.455   2.36000000e+02 
93.420   2.58000000e+02 
93.384   2.51000000e+02 
93.348   2.46000000e+02 
93.312   2.94000000e+02 
93.276   2.84000000e+02 
93.240   2.86000000e+02 
93.204   3.01000000e+02 
93.168   2.72000000e+02 
93.132   2.78000000e+02 
93.096   3.13000000e+02 
93.060   2.98000000e+02 
93.024   3.18000000e+02 
92.988   3.20000000e+02 
92.952   3.27000000e+02 
92.916   3.49000000e+02 
92.880   3.84000000e+02 
92.845   3.54000000e+02 
92.809   3.44000000e+02 
92.773   3.74000000e+02 
92.737   3.72000000e+02 
92.701   4.27000000e+02 
92.665   4.08000000e+02 
92.629   4.79000000e+02 
92.593   4.82000000e+02 
92.557   5.22000000e+02 
92.521   5.02000000e+02 
92.485   5.34000000e+02 
92.449   5.59000000e+02 
92.413   5.69000000e+02 
92.377   6.60000000e+02 
92.341   6.60000000e+02 
92.305   6.97000000e+02 
92.270   7.23000000e+02 
92.234   7.69000000e+02 
92.198   8.17000000e+02 
92.162   8.19000000e+02 
92.126   9.03000000e+02 
92.090   9.71000000e+02 
92.054   1.02900000e+03 
92.018   1.12700000e+03 
91.982   1.14500000e+03 
91.946   1.18300000e+03 
91.910   1.24300000e+03 
91.874   1.32500000e+03 
91.838   1.39400000e+03 
91.802   1.38400000e+03 
91.766   1.48200000e+03 
91.730   1.47700000e+03 
91.695   1.61800000e+03 
91.659   1.60800000e+03 
91.623   1.56700000e+03 
91.587   1.63400000e+03 
91.551   1.60200000e+03 
91.515   1.59300000e+03 
91.479   1.53000000e+03 
91.443   1.57700000e+03 
91.407   1.45800000e+03 
91.371   1.39600000e+03 
91.335   1.39900000e+03 
91.299   1.25400000e+03 
91.263   1.08900000e+03 
91.227   1.05700000e+03 
91.191   8.89000000e+02 
91.155   8.79000000e+02 
91.120   7.61000000e+02 
91.084   7.10000000e+02 
91.048   6.36000000e+02 
91.012   5.42000000e+02 
90.976   4.88000000e+02 
90.940   4.53000000e+02 
90.904   4.39000000e+02 
90.868   3.99000000e+02 
90.832   2.96000000e+02 
90.796   2.98000000e+02 
90.760   2.82000000e+02 
90.724   2.77000000e+02 
90.688   2.60000000e+02 
90.652   2.44000000e+02 
90.616   2.57000000e+02 
90.580   2.08000000e+02 
90.545   2.14000000e+02 
90.509   2.02000000e+02 
90.473   1.92000000e+02 
90.437   2.00000000e+02 
90.401   1.88000000e+02 
90.365   1.89000000e+02 
90.329   1.63000000e+02 
90.293   1.78000000e+02 
90.257   1.78000000e+02 
90.221   1.71000000e+02 
90.185   1.56000000e+02 
90.149   1.68000000e+02 
90.113   1.63000000e+02 
90.077   1.84000000e+02 
90.041   1.55000000e+02 
90.005   1.49000000e+02 
89.970   1.53000000e+02 
89.934   1.42000000e+02 
89.898   1.47000000e+02 
89.862   1.46000000e+02 
89.826   1.64000000e+02 
89.790   1.24000000e+02 
89.754   1.40000000e+02 
89.718   1.21000000e+02 
89.682   1.34000000e+02 
89.646   1.38000000e+02 
89.610   1.36000000e+02 
89.574   1.40000000e+02 
89.538   1.37000000e+02 
89.502   1.37000000e+02 
89.466   1.23000000e+02 
89.430   1.19000000e+02 
89.395   1.14000000e+02 
89.359   1.16000000e+02 
89.323   1.30000000e+02 
89.287   1.13000000e+02 
89.251   1.13000000e+02 
89.215   1.07000000e+02 
89.179   1.12000000e+02 
89.143   1.11000000e+02 
89.107   1.27000000e+02 
89.071   1.27000000e+02 
89.035   1.15000000e+02 
88.999   1.08000000e+02 
88.963   1.12000000e+02 
88.927   1.44000000e+02 
88.891   1.12000000e+02 
88.855   1.29000000e+02 
88.820   1.23000000e+02 
88.784   1.03000000e+02 
88.748   1.21000000e+02 
88.712   1.03000000e+02 
88.676   1.13000000e+02 
88.640   1.26000000e+02 
88.604   1.11000000e+02 
88.568   1.07000000e+02 
88.532   1.08000000e+02 
88.496   1.20000000e+02 
88.460   1.15000000e+02 
88.424   1.16000000e+02 
88.388   1.09000000e+02 
88.352   1.18000000e+02 
88.316   1.18000000e+02 
88.280   1.04000000e+02 
88.245   1.14000000e+02 
88.209   1.05000000e+02 
88.173   1.19000000e+02 
88.137   1.03000000e+02 
88.101   1.19000000e+02 
88.065   1.14000000e+02 
88.029   1.04000000e+02 
87.993   1.19000000e+02 
87.957   1.15000000e+02 
87.921   1.13000000e+02 
87.885   1.23000000e+02 
87.849   1.10000000e+02 
87.813   9.90000000e+01 
87.777   1.05000000e+02 
87.741   1.16000000e+02 
87.705   9.90000000e+01 
87.670   1.18000000e+02 
87.634   9.50000000e+01 
87.598   1.09000000e+02 
87.562   9.50000000e+01 
87.526   1.11000000e+02 
87.490   1.02000000e+02 
87.454   1.00000000e+02 
87.418   1.09000000e+02 
87.382   1.05000000e+02 
87.346   1.13000000e+02 
87.310   1.21000000e+02 
87.274   1.19000000e+02 
87.238   1.11000000e+02 
87.202   1.10000000e+02 
87.166   1.27000000e+02 
87.130   1.36000000e+02 
87.095   1.10000000e+02 
87.059   1.22000000e+02 
87.023   1.16000000e+02 

