EXPERIMENT FILE
Version = 2

[ Experiment Parameters ]
Experiment Description= <none> 
Number_of_Regions_in_Experiment= 1 

Original_File_name= C:\alexesca\data\0422Au4fAngNeg25.xps 
Instrument= HP ESCA West
Date= 04-22-2013
Time=  15:29:08

[ Layer Parameters ]
Layer_Type= XPS

[ Region 1 Parameters ]
Region_Description = Au 4f Dithered 92eV Center 10eV Width
BEcenter(eV) = 92.000000
BEwidth(eV) = 10.000000
BEstep(eV) = 0.035937
Dwell_Time(sec) = 1.000000
N_o_scans = 1  
N_o_Channels = 278  
Scan_mode = 0  (DITHERED)

[ L= 1 R= 1 ]
BEcenter= 92.000  
BEwidth= -9.955  
Excitation= 1486.600
Time_p_channel= 256.000 
Size= 278
96.977   3.84000000e+02 
96.941   4.23000000e+02 
96.905   3.96000000e+02 
96.870   3.70000000e+02 
96.834   3.57000000e+02 
96.798   4.27000000e+02 
96.762   4.11000000e+02 
96.726   3.98000000e+02 
96.690   4.04000000e+02 
96.654   4.79000000e+02 
96.618   4.59000000e+02 
96.582   4.50000000e+02 
96.546   4.75000000e+02 
96.510   4.75000000e+02 
96.474   4.65000000e+02 
96.438   5.14000000e+02 
96.402   5.02000000e+02 
96.366   5.21000000e+02 
96.330   5.53000000e+02 
96.295   5.63000000e+02 
96.259   5.66000000e+02 
96.223   5.74000000e+02 
96.187   6.03000000e+02 
96.151   6.27000000e+02 
96.115   6.50000000e+02 
96.079   6.85000000e+02 
96.043   6.97000000e+02 
96.007   7.47000000e+02 
95.971   8.02000000e+02 
95.935   8.13000000e+02 
95.899   7.70000000e+02 
95.863   8.99000000e+02 
95.827   9.38000000e+02 
95.791   9.49000000e+02 
95.755   1.00400000e+03 
95.720   1.04400000e+03 
95.684   1.14000000e+03 
95.648   1.19700000e+03 
95.612   1.21900000e+03 
95.576   1.31300000e+03 
95.540   1.36000000e+03 
95.504   1.52000000e+03 
95.468   1.48100000e+03 
95.432   1.49600000e+03 
95.396   1.56300000e+03 
95.360   1.54200000e+03 
95.324   1.64700000e+03 
95.288   1.69800000e+03 
95.252   1.88000000e+03 
95.216   1.80500000e+03 
95.180   1.98000000e+03 
95.145   1.97600000e+03 
95.109   1.93000000e+03 
95.073   1.90600000e+03 
95.037   1.93400000e+03 
95.001   1.90800000e+03 
94.965   1.77100000e+03 
94.929   1.70700000e+03 
94.893   1.69600000e+03 
94.857   1.55500000e+03 
94.821   1.39100000e+03 
94.785   1.38600000e+03 
94.749   1.30000000e+03 
94.713   1.12100000e+03 
94.677   1.08500000e+03 
94.641   1.01100000e+03 
94.605   8.84000000e+02 
94.570   8.24000000e+02 
94.534   7.36000000e+02 
94.498   7.05000000e+02 
94.462   6.69000000e+02 
94.426   5.73000000e+02 
94.390   5.90000000e+02 
94.354   5.23000000e+02 
94.318   4.82000000e+02 
94.282   4.61000000e+02 
94.246   4.73000000e+02 
94.210   4.14000000e+02 
94.174   4.38000000e+02 
94.138   4.05000000e+02 
94.102   4.04000000e+02 
94.066   4.09000000e+02 
94.030   4.23000000e+02 
93.995   3.68000000e+02 
93.959   3.61000000e+02 
93.923   3.90000000e+02 
93.887   3.54000000e+02 
93.851   3.34000000e+02 
93.815   3.61000000e+02 
93.779   3.48000000e+02 
93.743   3.57000000e+02 
93.707   3.89000000e+02 
93.671   3.74000000e+02 
93.635   3.59000000e+02 
93.599   3.48000000e+02 
93.563   3.49000000e+02 
93.527   3.30000000e+02 
93.491   3.58000000e+02 
93.455   3.32000000e+02 
93.420   3.38000000e+02 
93.384   3.37000000e+02 
93.348   3.49000000e+02 
93.312   3.54000000e+02 
93.276   3.78000000e+02 
93.240   3.72000000e+02 
93.204   3.83000000e+02 
93.168   3.59000000e+02 
93.132   3.51000000e+02 
93.096   3.66000000e+02 
93.060   3.79000000e+02 
93.024   4.23000000e+02 
92.988   3.91000000e+02 
92.952   3.81000000e+02 
92.916   4.34000000e+02 
92.880   4.39000000e+02 
92.845   4.71000000e+02 
92.809   4.51000000e+02 
92.773   4.67000000e+02 
92.737   5.04000000e+02 
92.701   4.98000000e+02 
92.665   5.55000000e+02 
92.629   5.28000000e+02 
92.593   6.17000000e+02 
92.557   6.15000000e+02 
92.521   5.95000000e+02 
92.485   6.80000000e+02 
92.449   7.39000000e+02 
92.413   7.49000000e+02 
92.377   8.00000000e+02 
92.341   7.44000000e+02 
92.305   8.09000000e+02 
92.270   9.07000000e+02 
92.234   8.87000000e+02 
92.198   9.73000000e+02 
92.162   1.07000000e+03 
92.126   1.12700000e+03 
92.090   1.12200000e+03 
92.054   1.17700000e+03 
92.018   1.19500000e+03 
91.982   1.33000000e+03 
91.946   1.36700000e+03 
91.910   1.39000000e+03 
91.874   1.60100000e+03 
91.838   1.65200000e+03 
91.802   1.79700000e+03 
91.766   1.97500000e+03 
91.730   1.87900000e+03 
91.695   1.89300000e+03 
91.659   1.95300000e+03 
91.623   2.07500000e+03 
91.587   2.09200000e+03 
91.551   2.22400000e+03 
91.515   2.28600000e+03 
91.479   2.28700000e+03 
91.443   2.39900000e+03 
91.407   2.33700000e+03 
91.371   2.23100000e+03 
91.335   2.28200000e+03 
91.299   2.16100000e+03 
91.263   2.05800000e+03 
91.227   1.97300000e+03 
91.191   1.87900000e+03 
91.155   1.74300000e+03 
91.120   1.60500000e+03 
91.084   1.51900000e+03 
91.048   1.33100000e+03 
91.012   1.26500000e+03 
90.976   1.10800000e+03 
90.940   9.67000000e+02 
90.904   8.31000000e+02 
90.868   7.57000000e+02 
90.832   6.64000000e+02 
90.796   6.24000000e+02 
90.760   6.03000000e+02 
90.724   4.98000000e+02 
90.688   4.79000000e+02 
90.652   4.00000000e+02 
90.616   4.05000000e+02 
90.580   4.26000000e+02 
90.545   3.50000000e+02 
90.509   3.18000000e+02 
90.473   3.31000000e+02 
90.437   2.92000000e+02 
90.401   2.57000000e+02 
90.365   2.58000000e+02 
90.329   2.38000000e+02 
90.293   2.51000000e+02 
90.257   2.44000000e+02 
90.221   2.64000000e+02 
90.185   2.38000000e+02 
90.149   2.41000000e+02 
90.113   2.30000000e+02 
90.077   2.20000000e+02 
90.041   2.15000000e+02 
90.005   2.32000000e+02 
89.970   1.90000000e+02 
89.934   1.87000000e+02 
89.898   2.14000000e+02 
89.862   1.87000000e+02 
89.826   1.91000000e+02 
89.790   2.05000000e+02 
89.754   1.85000000e+02 
89.718   1.77000000e+02 
89.682   1.79000000e+02 
89.646   1.88000000e+02 
89.610   1.77000000e+02 
89.574   1.64000000e+02 
89.538   1.82000000e+02 
89.502   1.92000000e+02 
89.466   1.58000000e+02 
89.430   1.66000000e+02 
89.395   1.81000000e+02 
89.359   1.86000000e+02 
89.323   1.68000000e+02 
89.287   1.72000000e+02 
89.251   1.61000000e+02 
89.215   1.61000000e+02 
89.179   1.68000000e+02 
89.143   1.84000000e+02 
89.107   1.77000000e+02 
89.071   1.50000000e+02 
89.035   1.62000000e+02 
88.999   1.54000000e+02 
88.963   1.53000000e+02 
88.927   1.52000000e+02 
88.891   1.75000000e+02 
88.855   1.61000000e+02 
88.820   1.65000000e+02 
88.784   1.61000000e+02 
88.748   1.46000000e+02 
88.712   1.61000000e+02 
88.676   1.53000000e+02 
88.640   1.51000000e+02 
88.604   1.61000000e+02 
88.568   1.80000000e+02 
88.532   1.51000000e+02 
88.496   1.54000000e+02 
88.460   1.48000000e+02 
88.424   1.56000000e+02 
88.388   1.60000000e+02 
88.352   1.68000000e+02 
88.316   1.30000000e+02 
88.280   1.71000000e+02 
88.245   1.46000000e+02 
88.209   1.41000000e+02 
88.173   1.63000000e+02 
88.137   1.49000000e+02 
88.101   1.51000000e+02 
88.065   1.56000000e+02 
88.029   1.32000000e+02 
87.993   1.48000000e+02 
87.957   1.75000000e+02 
87.921   1.60000000e+02 
87.885   1.50000000e+02 
87.849   1.49000000e+02 
87.813   1.49000000e+02 
87.777   1.42000000e+02 
87.741   1.52000000e+02 
87.705   1.39000000e+02 
87.670   1.46000000e+02 
87.634   1.47000000e+02 
87.598   1.55000000e+02 
87.562   1.42000000e+02 
87.526   1.49000000e+02 
87.490   1.41000000e+02 
87.454   1.57000000e+02 
87.418   1.48000000e+02 
87.382   1.28000000e+02 
87.346   1.26000000e+02 
87.310   1.25000000e+02 
87.274   1.13000000e+02 
87.238   1.37000000e+02 
87.202   1.33000000e+02 
87.166   1.51000000e+02 
87.130   1.40000000e+02 
87.095   1.53000000e+02 
87.059   1.61000000e+02 
87.023   1.59000000e+02 

