EXPERIMENT FILE
Version = 2

[ Experiment Parameters ]
Experiment Description= <none> 
Number_of_Regions_in_Experiment= 1 

Original_File_name= C:\alexesca\data\0703dithered.xps 
Instrument= HP ESCA West
Date= 07-03-2012
Time=  16:00:26

[ Layer Parameters ]
Layer_Type= XPS

[ Region 1 Parameters ]
Region_Description = Au Dithered Scan Test              
BEcenter(eV) = 91.000000
BEwidth(eV) = 10.000000
BEstep(eV) = 0.035938
Dwell_Time(sec) = 1.000000
N_o_scans = 1  
N_o_Channels = 278  
Scan_mode = 0  (DITHERED)

[ L= 1 R= 1 ]
BEcenter= 91.000  
BEwidth= -9.955  
Excitation= 1486.600
Time_p_channel= 256.000 
Size= 278
95.977   3.43000000e+02 
95.941   3.51000000e+02 
95.905   3.58000000e+02 
95.870   3.79000000e+02 
95.834   4.00000000e+02 
95.798   3.57000000e+02 
95.762   3.81000000e+02 
95.726   3.95000000e+02 
95.690   4.29000000e+02 
95.654   3.76000000e+02 
95.618   3.90000000e+02 
95.582   3.91000000e+02 
95.546   3.83000000e+02 
95.510   3.99000000e+02 
95.474   3.90000000e+02 
95.438   3.95000000e+02 
95.402   4.17000000e+02 
95.366   4.14000000e+02 
95.330   3.93000000e+02 
95.295   4.44000000e+02 
95.259   4.09000000e+02 
95.223   4.25000000e+02 
95.187   4.32000000e+02 
95.151   4.21000000e+02 
95.115   4.76000000e+02 
95.079   4.16000000e+02 
95.043   4.84000000e+02 
95.007   4.11000000e+02 
94.971   4.43000000e+02 
94.935   4.77000000e+02 
94.899   5.16000000e+02 
94.863   4.94000000e+02 
94.827   5.37000000e+02 
94.791   5.42000000e+02 
94.755   5.41000000e+02 
94.720   5.45000000e+02 
94.684   5.73000000e+02 
94.648   5.76000000e+02 
94.612   6.21000000e+02 
94.576   6.39000000e+02 
94.540   6.04000000e+02 
94.504   6.93000000e+02 
94.468   7.25000000e+02 
94.432   7.61000000e+02 
94.396   7.63000000e+02 
94.360   8.12000000e+02 
94.324   7.93000000e+02 
94.288   8.47000000e+02 
94.252   9.08000000e+02 
94.216   9.13000000e+02 
94.180   9.37000000e+02 
94.145   9.22000000e+02 
94.109   1.04600000e+03 
94.073   1.06300000e+03 
94.037   1.16300000e+03 
94.001   1.18900000e+03 
93.965   1.16400000e+03 
93.929   1.21100000e+03 
93.893   1.43300000e+03 
93.857   1.45200000e+03 
93.821   1.49000000e+03 
93.785   1.53500000e+03 
93.749   1.56200000e+03 
93.713   1.75700000e+03 
93.677   1.85300000e+03 
93.641   1.80000000e+03 
93.605   1.83700000e+03 
93.570   1.93500000e+03 
93.534   1.97000000e+03 
93.498   2.08100000e+03 
93.462   2.19500000e+03 
93.426   2.25200000e+03 
93.390   2.24700000e+03 
93.354   2.22000000e+03 
93.318   2.21700000e+03 
93.282   2.30700000e+03 
93.246   2.31400000e+03 
93.210   2.27900000e+03 
93.174   2.14800000e+03 
93.138   2.15700000e+03 
93.102   1.95100000e+03 
93.066   1.97400000e+03 
93.030   1.79800000e+03 
92.995   1.68900000e+03 
92.959   1.54400000e+03 
92.923   1.49000000e+03 
92.887   1.30600000e+03 
92.851   1.20600000e+03 
92.815   1.12600000e+03 
92.779   1.03700000e+03 
92.743   9.25000000e+02 
92.707   8.41000000e+02 
92.671   8.17000000e+02 
92.635   7.34000000e+02 
92.599   7.01000000e+02 
92.563   6.37000000e+02 
92.527   6.06000000e+02 
92.491   5.51000000e+02 
92.455   5.31000000e+02 
92.420   5.14000000e+02 
92.384   4.99000000e+02 
92.348   4.76000000e+02 
92.312   4.82000000e+02 
92.276   4.66000000e+02 
92.240   4.06000000e+02 
92.204   4.17000000e+02 
92.168   4.18000000e+02 
92.132   3.69000000e+02 
92.096   4.21000000e+02 
92.060   3.95000000e+02 
92.024   4.07000000e+02 
91.988   3.82000000e+02 
91.952   3.90000000e+02 
91.916   4.06000000e+02 
91.880   3.48000000e+02 
91.845   3.94000000e+02 
91.809   3.74000000e+02 
91.773   4.01000000e+02 
91.737   3.31000000e+02 
91.701   3.52000000e+02 
91.665   3.83000000e+02 
91.629   4.01000000e+02 
91.593   3.88000000e+02 
91.557   4.00000000e+02 
91.521   4.11000000e+02 
91.485   4.38000000e+02 
91.449   4.28000000e+02 
91.413   4.20000000e+02 
91.377   4.41000000e+02 
91.341   4.33000000e+02 
91.305   4.04000000e+02 
91.270   4.32000000e+02 
91.234   4.44000000e+02 
91.198   4.69000000e+02 
91.162   4.68000000e+02 
91.126   4.85000000e+02 
91.090   4.96000000e+02 
91.054   5.43000000e+02 
91.018   5.19000000e+02 
90.982   5.44000000e+02 
90.946   5.60000000e+02 
90.910   5.85000000e+02 
90.874   5.78000000e+02 
90.838   6.36000000e+02 
90.802   6.51000000e+02 
90.766   6.37000000e+02 
90.730   6.88000000e+02 
90.695   7.10000000e+02 
90.659   7.30000000e+02 
90.623   7.35000000e+02 
90.587   7.82000000e+02 
90.551   8.58000000e+02 
90.515   9.02000000e+02 
90.479   9.17000000e+02 
90.443   9.59000000e+02 
90.407   9.93000000e+02 
90.371   1.07600000e+03 
90.335   1.05400000e+03 
90.299   1.14400000e+03 
90.263   1.22800000e+03 
90.227   1.33100000e+03 
90.191   1.31300000e+03 
90.155   1.49100000e+03 
90.120   1.47400000e+03 
90.084   1.55800000e+03 
90.048   1.73200000e+03 
90.012   1.77700000e+03 
89.976   1.80200000e+03 
89.940   1.88100000e+03 
89.904   2.01800000e+03 
89.868   1.98700000e+03 
89.832   2.15300000e+03 
89.796   2.32700000e+03 
89.760   2.25800000e+03 
89.724   2.48800000e+03 
89.688   2.53900000e+03 
89.652   2.63600000e+03 
89.616   2.65100000e+03 
89.580   2.72100000e+03 
89.545   2.73400000e+03 
89.509   2.71100000e+03 
89.473   2.75500000e+03 
89.437   2.82700000e+03 
89.401   2.73300000e+03 
89.365   2.70600000e+03 
89.329   2.58200000e+03 
89.293   2.47500000e+03 
89.257   2.34700000e+03 
89.221   2.22100000e+03 
89.185   2.09900000e+03 
89.149   1.90500000e+03 
89.113   1.77300000e+03 
89.077   1.69100000e+03 
89.041   1.50200000e+03 
89.005   1.42800000e+03 
88.970   1.26000000e+03 
88.934   1.08100000e+03 
88.898   1.00200000e+03 
88.862   9.20000000e+02 
88.826   8.22000000e+02 
88.790   7.55000000e+02 
88.754   7.02000000e+02 
88.718   6.26000000e+02 
88.682   6.26000000e+02 
88.646   5.49000000e+02 
88.610   4.71000000e+02 
88.574   4.41000000e+02 
88.538   4.06000000e+02 
88.502   3.63000000e+02 
88.466   3.78000000e+02 
88.430   3.25000000e+02 
88.395   3.02000000e+02 
88.359   3.25000000e+02 
88.323   3.08000000e+02 
88.287   2.76000000e+02 
88.251   2.76000000e+02 
88.215   2.59000000e+02 
88.179   2.34000000e+02 
88.143   2.21000000e+02 
88.107   2.35000000e+02 
88.071   2.09000000e+02 
88.035   2.27000000e+02 
87.999   1.94000000e+02 
87.963   2.24000000e+02 
87.927   2.21000000e+02 
87.891   1.94000000e+02 
87.855   1.88000000e+02 
87.820   2.08000000e+02 
87.784   1.90000000e+02 
87.748   2.08000000e+02 
87.712   1.80000000e+02 
87.676   1.57000000e+02 
87.640   1.75000000e+02 
87.604   1.71000000e+02 
87.568   1.60000000e+02 
87.532   1.56000000e+02 
87.496   1.64000000e+02 
87.460   1.45000000e+02 
87.424   1.68000000e+02 
87.388   1.56000000e+02 
87.352   1.52000000e+02 
87.316   1.63000000e+02 
87.280   1.66000000e+02 
87.245   1.45000000e+02 
87.209   1.58000000e+02 
87.173   1.38000000e+02 
87.137   1.44000000e+02 
87.101   1.36000000e+02 
87.065   1.56000000e+02 
87.029   1.18000000e+02 
86.993   1.22000000e+02 
86.957   1.58000000e+02 
86.921   1.24000000e+02 
86.885   1.40000000e+02 
86.849   1.26000000e+02 
86.813   1.45000000e+02 
86.777   1.51000000e+02 
86.741   1.41000000e+02 
86.705   1.11000000e+02 
86.670   1.14000000e+02 
86.634   1.37000000e+02 
86.598   1.35000000e+02 
86.562   1.25000000e+02 
86.526   1.42000000e+02 
86.490   1.42000000e+02 
86.454   1.31000000e+02 
86.418   1.47000000e+02 
86.382   1.06000000e+02 
86.346   1.11000000e+02 
86.310   1.22000000e+02 
86.274   1.13000000e+02 
86.238   1.08000000e+02 
86.202   1.09000000e+02 
86.166   1.22000000e+02 
86.130   1.30000000e+02 
86.095   1.19000000e+02 
86.059   1.13000000e+02 
86.023   1.21000000e+02 

