EXPERIMENT FILE
Version = 2

[ Experiment Parameters ]
Experiment Description= <none> 
Number_of_Regions_in_Experiment= 1 

Original_File_name= C:\alexesca\data\0705quick.xps 
Instrument= HP ESCA West
Date= 07-05-2012
Time=  15:28:57

[ Layer Parameters ]
Layer_Type= XPS

[ Region 1 Parameters ]
Region_Description = Au quick Dithered Scan Test        
BEcenter(eV) = 91.000000
BEwidth(eV) = 10.000000
BEstep(eV) = 0.035938
Dwell_Time(sec) = 0.100000
N_o_scans = 1  
N_o_Channels = 278  
Scan_mode = 0  (DITHERED)

[ L= 1 R= 1 ]
BEcenter= 91.000  
BEwidth= -9.955  
Excitation= 1486.600
Time_p_channel= 25.600  
Size= 278
95.977   3.90000000e+01 
95.941   4.30000000e+01 
95.905   4.50000000e+01 
95.870   3.40000000e+01 
95.834   4.80000000e+01 
95.798   4.30000000e+01 
95.762   3.40000000e+01 
95.726   4.60000000e+01 
95.690   3.40000000e+01 
95.654   4.70000000e+01 
95.618   4.20000000e+01 
95.582   3.50000000e+01 
95.546   3.40000000e+01 
95.510   4.30000000e+01 
95.474   5.20000000e+01 
95.438   5.20000000e+01 
95.402   4.80000000e+01 
95.366   3.80000000e+01 
95.330   3.20000000e+01 
95.295   3.70000000e+01 
95.259   5.10000000e+01 
95.223   4.70000000e+01 
95.187   5.20000000e+01 
95.151   3.50000000e+01 
95.115   4.90000000e+01 
95.079   4.80000000e+01 
95.043   4.90000000e+01 
95.007   5.30000000e+01 
94.971   3.70000000e+01 
94.935   5.60000000e+01 
94.899   5.90000000e+01 
94.863   6.00000000e+01 
94.827   5.70000000e+01 
94.791   4.80000000e+01 
94.755   6.00000000e+01 
94.720   5.80000000e+01 
94.684   6.10000000e+01 
94.648   6.70000000e+01 
94.612   7.10000000e+01 
94.576   6.80000000e+01 
94.540   7.70000000e+01 
94.504   6.10000000e+01 
94.468   7.30000000e+01 
94.432   9.30000000e+01 
94.396   9.30000000e+01 
94.360   7.70000000e+01 
94.324   1.02000000e+02 
94.288   9.40000000e+01 
94.252   1.13000000e+02 
94.216   9.80000000e+01 
94.180   1.18000000e+02 
94.145   1.29000000e+02 
94.109   1.30000000e+02 
94.073   1.40000000e+02 
94.037   1.30000000e+02 
94.001   1.33000000e+02 
93.965   1.40000000e+02 
93.929   1.59000000e+02 
93.893   1.77000000e+02 
93.857   1.81000000e+02 
93.821   1.81000000e+02 
93.785   1.91000000e+02 
93.749   1.80000000e+02 
93.713   2.00000000e+02 
93.677   2.17000000e+02 
93.641   2.14000000e+02 
93.605   2.30000000e+02 
93.570   2.03000000e+02 
93.534   2.06000000e+02 
93.498   2.17000000e+02 
93.462   2.45000000e+02 
93.426   2.23000000e+02 
93.390   2.27000000e+02 
93.354   2.15000000e+02 
93.318   2.23000000e+02 
93.282   2.01000000e+02 
93.246   2.00000000e+02 
93.210   1.67000000e+02 
93.174   1.69000000e+02 
93.138   1.23000000e+02 
93.102   1.29000000e+02 
93.066   1.09000000e+02 
93.030   1.30000000e+02 
92.995   1.13000000e+02 
92.959   1.11000000e+02 
92.923   9.70000000e+01 
92.887   9.30000000e+01 
92.851   7.70000000e+01 
92.815   7.20000000e+01 
92.779   6.80000000e+01 
92.743   4.50000000e+01 
92.707   5.60000000e+01 
92.671   4.80000000e+01 
92.635   5.10000000e+01 
92.599   5.10000000e+01 
92.563   4.20000000e+01 
92.527   3.90000000e+01 
92.491   4.90000000e+01 
92.455   4.30000000e+01 
92.420   4.90000000e+01 
92.384   4.50000000e+01 
92.348   4.40000000e+01 
92.312   3.90000000e+01 
92.276   5.30000000e+01 
92.240   3.20000000e+01 
92.204   4.10000000e+01 
92.168   4.60000000e+01 
92.132   3.30000000e+01 
92.096   3.50000000e+01 
92.060   3.70000000e+01 
92.024   4.30000000e+01 
91.988   3.60000000e+01 
91.952   3.90000000e+01 
91.916   3.20000000e+01 
91.880   4.00000000e+01 
91.845   4.70000000e+01 
91.809   3.60000000e+01 
91.773   3.20000000e+01 
91.737   4.30000000e+01 
91.701   2.80000000e+01 
91.665   5.10000000e+01 
91.629   4.90000000e+01 
91.593   4.00000000e+01 
91.557   4.80000000e+01 
91.521   3.70000000e+01 
91.485   5.30000000e+01 
91.449   6.70000000e+01 
91.413   4.80000000e+01 
91.377   4.60000000e+01 
91.341   4.20000000e+01 
91.305   5.70000000e+01 
91.270   4.80000000e+01 
91.234   5.60000000e+01 
91.198   4.70000000e+01 
91.162   5.60000000e+01 
91.126   6.00000000e+01 
91.090   6.50000000e+01 
91.054   6.80000000e+01 
91.018   7.50000000e+01 
90.982   7.40000000e+01 
90.946   8.00000000e+01 
90.910   7.50000000e+01 
90.874   7.90000000e+01 
90.838   8.60000000e+01 
90.802   8.50000000e+01 
90.766   1.01000000e+02 
90.730   9.40000000e+01 
90.695   1.14000000e+02 
90.659   8.20000000e+01 
90.623   1.09000000e+02 
90.587   1.53000000e+02 
90.551   1.16000000e+02 
90.515   1.17000000e+02 
90.479   1.39000000e+02 
90.443   1.32000000e+02 
90.407   1.63000000e+02 
90.371   1.54000000e+02 
90.335   1.65000000e+02 
90.299   1.64000000e+02 
90.263   1.93000000e+02 
90.227   1.79000000e+02 
90.191   1.96000000e+02 
90.155   2.16000000e+02 
90.120   1.96000000e+02 
90.084   2.38000000e+02 
90.048   2.44000000e+02 
90.012   2.59000000e+02 
89.976   2.67000000e+02 
89.940   2.68000000e+02 
89.904   2.83000000e+02 
89.868   2.99000000e+02 
89.832   2.58000000e+02 
89.796   2.74000000e+02 
89.760   2.84000000e+02 
89.724   2.67000000e+02 
89.688   2.61000000e+02 
89.652   2.48000000e+02 
89.616   2.42000000e+02 
89.580   1.98000000e+02 
89.545   1.99000000e+02 
89.509   1.78000000e+02 
89.473   1.69000000e+02 
89.437   1.62000000e+02 
89.401   1.43000000e+02 
89.365   1.23000000e+02 
89.329   1.25000000e+02 
89.293   9.60000000e+01 
89.257   6.90000000e+01 
89.221   7.90000000e+01 
89.185   7.80000000e+01 
89.149   5.70000000e+01 
89.113   5.40000000e+01 
89.077   4.70000000e+01 
89.041   3.60000000e+01 
89.005   3.60000000e+01 
88.970   4.70000000e+01 
88.934   3.40000000e+01 
88.898   2.90000000e+01 
88.862   3.60000000e+01 
88.826   2.20000000e+01 
88.790   2.70000000e+01 
88.754   2.90000000e+01 
88.718   2.50000000e+01 
88.682   3.40000000e+01 
88.646   2.10000000e+01 
88.610   3.40000000e+01 
88.574   1.70000000e+01 
88.538   2.30000000e+01 
88.502   2.10000000e+01 
88.466   2.70000000e+01 
88.430   2.30000000e+01 
88.395   2.20000000e+01 
88.359   2.00000000e+01 
88.323   2.50000000e+01 
88.287   1.70000000e+01 
88.251   2.20000000e+01 
88.215   2.40000000e+01 
88.179   2.00000000e+01 
88.143   1.80000000e+01 
88.107   2.20000000e+01 
88.071   1.50000000e+01 
88.035   1.60000000e+01 
87.999   8.00000000e+00 
87.963   8.00000000e+00 
87.927   1.00000000e+01 
87.891   1.50000000e+01 
87.855   9.00000000e+00 
87.820   1.90000000e+01 
87.784   1.40000000e+01 
87.748   1.70000000e+01 
87.712   1.90000000e+01 
87.676   2.20000000e+01 
87.640   1.60000000e+01 
87.604   1.20000000e+01 
87.568   1.60000000e+01 
87.532   1.90000000e+01 
87.496   1.40000000e+01 
87.460   1.00000000e+01 
87.424   7.00000000e+00 
87.388   1.20000000e+01 
87.352   1.60000000e+01 
87.316   1.90000000e+01 
87.280   1.80000000e+01 
87.245   1.40000000e+01 
87.209   1.60000000e+01 
87.173   1.90000000e+01 
87.137   1.60000000e+01 
87.101   1.60000000e+01 
87.065   1.40000000e+01 
87.029   1.50000000e+01 
86.993   1.30000000e+01 
86.957   2.00000000e+01 
86.921   1.40000000e+01 
86.885   1.00000000e+01 
86.849   1.50000000e+01 
86.813   1.70000000e+01 
86.777   1.10000000e+01 
86.741   1.50000000e+01 
86.705   1.40000000e+01 
86.670   1.30000000e+01 
86.634   1.20000000e+01 
86.598   7.00000000e+00 
86.562   7.00000000e+00 
86.526   1.90000000e+01 
86.490   1.10000000e+01 
86.454   1.40000000e+01 
86.418   1.00000000e+01 
86.382   1.00000000e+01 
86.346   8.00000000e+00 
86.310   1.40000000e+01 
86.274   1.70000000e+01 
86.238   7.00000000e+00 
86.202   1.20000000e+01 
86.166   1.20000000e+01 
86.130   8.00000000e+00 
86.095   1.30000000e+01 
86.059   1.60000000e+01 
86.023   9.00000000e+00 

