EXPERIMENT FILE
Version = 2

[ Experiment Parameters ]
Experiment Description= <none> 
Number_of_Regions_in_Experiment= 1 

Original_File_name= C:\alexesca\data\0718.xps 
Instrument= HP ESCA West
Date= 07-18-2012
Time=  12:58:15

[ Layer Parameters ]
Layer_Type= XPS

[ Region 1 Parameters ]
Region_Description = Au Dithered Scan Test              
BEcenter(eV) = 91.000000
BEwidth(eV) = 10.000000
BEstep(eV) = 0.035937
Dwell_Time(sec) = 1.000000
N_o_scans = 1  
N_o_Channels = 278  
Scan_mode = 0  (DITHERED)

[ L= 1 R= 1 ]
BEcenter= 91.000  
BEwidth= -9.955  
Excitation= 1486.600
Time_p_channel= 256.000 
Size= 278
95.977   2.79000000e+02 
95.941   2.98000000e+02 
95.905   3.10000000e+02 
95.870   3.14000000e+02 
95.834   3.04000000e+02 
95.798   3.17000000e+02 
95.762   3.53000000e+02 
95.726   3.73000000e+02 
95.690   3.43000000e+02 
95.654   3.66000000e+02 
95.618   3.55000000e+02 
95.582   3.96000000e+02 
95.546   4.32000000e+02 
95.510   4.37000000e+02 
95.474   4.43000000e+02 
95.438   4.75000000e+02 
95.402   4.81000000e+02 
95.366   5.13000000e+02 
95.330   4.97000000e+02 
95.295   5.85000000e+02 
95.259   5.68000000e+02 
95.223   5.82000000e+02 
95.187   6.37000000e+02 
95.151   6.78000000e+02 
95.115   6.84000000e+02 
95.079   7.03000000e+02 
95.043   7.46000000e+02 
95.007   7.92000000e+02 
94.971   7.80000000e+02 
94.935   7.93000000e+02 
94.899   8.27000000e+02 
94.863   8.91000000e+02 
94.827   9.77000000e+02 
94.791   1.03000000e+03 
94.755   9.89000000e+02 
94.720   1.07300000e+03 
94.684   1.03000000e+03 
94.648   1.03500000e+03 
94.612   1.10000000e+03 
94.576   1.13200000e+03 
94.540   1.04400000e+03 
94.504   1.12500000e+03 
94.468   1.03000000e+03 
94.432   1.10800000e+03 
94.396   1.03700000e+03 
94.360   1.02100000e+03 
94.324   1.00300000e+03 
94.288   9.57000000e+02 
94.252   9.06000000e+02 
94.216   8.26000000e+02 
94.180   7.23000000e+02 
94.145   7.72000000e+02 
94.109   6.52000000e+02 
94.073   6.20000000e+02 
94.037   5.40000000e+02 
94.001   4.88000000e+02 
93.965   4.71000000e+02 
93.929   4.38000000e+02 
93.893   4.25000000e+02 
93.857   4.21000000e+02 
93.821   3.72000000e+02 
93.785   3.24000000e+02 
93.749   3.43000000e+02 
93.713   3.35000000e+02 
93.677   3.10000000e+02 
93.641   2.96000000e+02 
93.605   2.72000000e+02 
93.570   2.81000000e+02 
93.534   2.56000000e+02 
93.498   2.71000000e+02 
93.462   2.56000000e+02 
93.426   2.65000000e+02 
93.390   2.49000000e+02 
93.354   2.49000000e+02 
93.318   2.68000000e+02 
93.282   2.34000000e+02 
93.246   2.41000000e+02 
93.210   2.33000000e+02 
93.174   2.13000000e+02 
93.138   2.15000000e+02 
93.102   2.02000000e+02 
93.066   2.07000000e+02 
93.030   2.24000000e+02 
92.995   2.29000000e+02 
92.959   2.25000000e+02 
92.923   2.31000000e+02 
92.887   2.28000000e+02 
92.851   2.43000000e+02 
92.815   2.20000000e+02 
92.779   1.99000000e+02 
92.743   2.14000000e+02 
92.707   2.44000000e+02 
92.671   2.23000000e+02 
92.635   2.52000000e+02 
92.599   2.09000000e+02 
92.563   2.35000000e+02 
92.527   2.23000000e+02 
92.491   2.47000000e+02 
92.455   2.43000000e+02 
92.420   2.82000000e+02 
92.384   2.77000000e+02 
92.348   2.90000000e+02 
92.312   3.00000000e+02 
92.276   2.90000000e+02 
92.240   3.11000000e+02 
92.204   3.03000000e+02 
92.168   3.30000000e+02 
92.132   3.38000000e+02 
92.096   3.82000000e+02 
92.060   3.57000000e+02 
92.024   3.74000000e+02 
91.988   3.70000000e+02 
91.952   4.21000000e+02 
91.916   4.54000000e+02 
91.880   4.46000000e+02 
91.845   4.53000000e+02 
91.809   5.50000000e+02 
91.773   5.72000000e+02 
91.737   5.65000000e+02 
91.701   6.23000000e+02 
91.665   6.38000000e+02 
91.629   6.47000000e+02 
91.593   6.39000000e+02 
91.557   6.86000000e+02 
91.521   7.68000000e+02 
91.485   7.67000000e+02 
91.449   8.23000000e+02 
91.413   8.40000000e+02 
91.377   8.96000000e+02 
91.341   9.26000000e+02 
91.305   9.86000000e+02 
91.270   1.04000000e+03 
91.234   1.12700000e+03 
91.198   1.12800000e+03 
91.162   1.16000000e+03 
91.126   1.21100000e+03 
91.090   1.24800000e+03 
91.054   1.23300000e+03 
91.018   1.26700000e+03 
90.982   1.32200000e+03 
90.946   1.44700000e+03 
90.910   1.40100000e+03 
90.874   1.42200000e+03 
90.838   1.35100000e+03 
90.802   1.36200000e+03 
90.766   1.35200000e+03 
90.730   1.28700000e+03 
90.695   1.27200000e+03 
90.659   1.11000000e+03 
90.623   1.19000000e+03 
90.587   1.02700000e+03 
90.551   9.52000000e+02 
90.515   8.23000000e+02 
90.479   8.78000000e+02 
90.443   7.62000000e+02 
90.407   5.97000000e+02 
90.371   5.74000000e+02 
90.335   5.26000000e+02 
90.299   4.83000000e+02 
90.263   4.16000000e+02 
90.227   3.68000000e+02 
90.191   3.54000000e+02 
90.155   3.11000000e+02 
90.120   3.05000000e+02 
90.084   2.60000000e+02 
90.048   2.07000000e+02 
90.012   2.34000000e+02 
89.976   2.21000000e+02 
89.940   2.01000000e+02 
89.904   1.84000000e+02 
89.868   1.81000000e+02 
89.832   2.02000000e+02 
89.796   1.69000000e+02 
89.760   1.55000000e+02 
89.724   1.61000000e+02 
89.688   1.66000000e+02 
89.652   1.53000000e+02 
89.616   1.36000000e+02 
89.580   1.30000000e+02 
89.545   1.35000000e+02 
89.509   1.62000000e+02 
89.473   1.63000000e+02 
89.437   1.63000000e+02 
89.401   1.21000000e+02 
89.365   1.31000000e+02 
89.329   1.37000000e+02 
89.293   1.30000000e+02 
89.257   1.28000000e+02 
89.221   1.12000000e+02 
89.185   1.27000000e+02 
89.149   1.08000000e+02 
89.113   9.40000000e+01 
89.077   1.17000000e+02 
89.041   1.26000000e+02 
89.005   1.18000000e+02 
88.970   1.17000000e+02 
88.934   9.80000000e+01 
88.898   1.02000000e+02 
88.862   9.20000000e+01 
88.826   1.10000000e+02 
88.790   9.20000000e+01 
88.754   8.50000000e+01 
88.718   1.06000000e+02 
88.682   1.01000000e+02 
88.646   8.00000000e+01 
88.610   9.50000000e+01 
88.574   8.60000000e+01 
88.538   1.01000000e+02 
88.502   8.30000000e+01 
88.466   9.80000000e+01 
88.430   9.80000000e+01 
88.395   7.80000000e+01 
88.359   8.80000000e+01 
88.323   8.70000000e+01 
88.287   1.05000000e+02 
88.251   8.70000000e+01 
88.215   8.90000000e+01 
88.179   8.50000000e+01 
88.143   7.50000000e+01 
88.107   8.00000000e+01 
88.071   8.60000000e+01 
88.035   1.02000000e+02 
87.999   8.40000000e+01 
87.963   9.10000000e+01 
87.927   8.10000000e+01 
87.891   7.60000000e+01 
87.855   8.10000000e+01 
87.820   7.50000000e+01 
87.784   8.20000000e+01 
87.748   7.40000000e+01 
87.712   7.50000000e+01 
87.676   9.00000000e+01 
87.640   7.50000000e+01 
87.604   7.80000000e+01 
87.568   8.00000000e+01 
87.532   6.40000000e+01 
87.496   7.10000000e+01 
87.460   6.30000000e+01 
87.424   7.00000000e+01 
87.388   8.50000000e+01 
87.352   7.80000000e+01 
87.316   6.60000000e+01 
87.280   7.00000000e+01 
87.245   7.40000000e+01 
87.209   6.60000000e+01 
87.173   8.30000000e+01 
87.137   8.10000000e+01 
87.101   7.20000000e+01 
87.065   6.80000000e+01 
87.029   6.20000000e+01 
86.993   7.40000000e+01 
86.957   6.90000000e+01 
86.921   7.00000000e+01 
86.885   6.10000000e+01 
86.849   7.60000000e+01 
86.813   7.20000000e+01 
86.777   8.10000000e+01 
86.741   7.80000000e+01 
86.705   7.30000000e+01 
86.670   6.60000000e+01 
86.634   9.10000000e+01 
86.598   6.60000000e+01 
86.562   8.40000000e+01 
86.526   8.10000000e+01 
86.490   6.60000000e+01 
86.454   7.30000000e+01 
86.418   7.40000000e+01 
86.382   8.30000000e+01 
86.346   6.30000000e+01 
86.310   6.80000000e+01 
86.274   6.10000000e+01 
86.238   7.30000000e+01 
86.202   8.70000000e+01 
86.166   7.60000000e+01 
86.130   8.50000000e+01 
86.095   7.70000000e+01 
86.059   8.40000000e+01 
86.023   7.80000000e+01 

