EXPERIMENT FILE
Version = 2

[ Experiment Parameters ]
Experiment Description= <none> 
Number_of_Regions_in_Experiment= 1 

Original_File_name= C:\alexesca\data\0823AuTest.xps 
Instrument= HP ESCA West
Date= 08-23-2012
Time=  13:24:08

[ Layer Parameters ]
Layer_Type= XPS

[ Region 1 Parameters ]
Region_Description = Au Dithered Scan Test              
BEcenter(eV) = 91.000000
BEwidth(eV) = 10.000000
BEstep(eV) = 0.035937
Dwell_Time(sec) = 1.000000
N_o_scans = 1  
N_o_Channels = 278  
Scan_mode = 0  (DITHERED)

[ L= 1 R= 1 ]
BEcenter= 91.000  
BEwidth= -9.955  
Excitation= 1486.600
Time_p_channel= 256.000 
Size= 278
95.977   5.93000000e+02 
95.941   5.94000000e+02 
95.905   6.34000000e+02 
95.870   6.93000000e+02 
95.834   6.87000000e+02 
95.798   7.02000000e+02 
95.762   7.51000000e+02 
95.726   7.24000000e+02 
95.690   8.29000000e+02 
95.654   9.22000000e+02 
95.618   8.36000000e+02 
95.582   8.72000000e+02 
95.546   9.62000000e+02 
95.510   9.60000000e+02 
95.474   1.00900000e+03 
95.438   1.11400000e+03 
95.402   1.18700000e+03 
95.366   1.22100000e+03 
95.330   1.22900000e+03 
95.295   1.31900000e+03 
95.259   1.33900000e+03 
95.223   1.38400000e+03 
95.187   1.47900000e+03 
95.151   1.56700000e+03 
95.115   1.60800000e+03 
95.079   1.66600000e+03 
95.043   1.66800000e+03 
95.007   1.65300000e+03 
94.971   1.71500000e+03 
94.935   1.66300000e+03 
94.899   1.71600000e+03 
94.863   1.69800000e+03 
94.827   1.67300000e+03 
94.791   1.61600000e+03 
94.755   1.58500000e+03 
94.720   1.50400000e+03 
94.684   1.41300000e+03 
94.648   1.39700000e+03 
94.612   1.28300000e+03 
94.576   1.17800000e+03 
94.540   1.11700000e+03 
94.504   1.06200000e+03 
94.468   9.09000000e+02 
94.432   8.31000000e+02 
94.396   7.75000000e+02 
94.360   7.39000000e+02 
94.324   6.60000000e+02 
94.288   6.46000000e+02 
94.252   5.56000000e+02 
94.216   5.22000000e+02 
94.180   4.78000000e+02 
94.145   4.69000000e+02 
94.109   4.52000000e+02 
94.073   3.91000000e+02 
94.037   4.09000000e+02 
94.001   3.90000000e+02 
93.965   3.99000000e+02 
93.929   3.64000000e+02 
93.893   3.47000000e+02 
93.857   3.60000000e+02 
93.821   3.11000000e+02 
93.785   3.47000000e+02 
93.749   3.02000000e+02 
93.713   3.31000000e+02 
93.677   2.94000000e+02 
93.641   3.26000000e+02 
93.605   3.00000000e+02 
93.570   2.89000000e+02 
93.534   3.01000000e+02 
93.498   2.94000000e+02 
93.462   2.86000000e+02 
93.426   2.97000000e+02 
93.390   3.13000000e+02 
93.354   3.22000000e+02 
93.318   2.79000000e+02 
93.282   2.89000000e+02 
93.246   3.18000000e+02 
93.210   2.83000000e+02 
93.174   2.92000000e+02 
93.138   3.04000000e+02 
93.102   3.38000000e+02 
93.066   2.94000000e+02 
93.030   3.31000000e+02 
92.995   3.32000000e+02 
92.959   3.39000000e+02 
92.923   3.36000000e+02 
92.887   3.66000000e+02 
92.851   3.68000000e+02 
92.815   3.49000000e+02 
92.779   4.14000000e+02 
92.743   3.96000000e+02 
92.707   4.12000000e+02 
92.671   4.21000000e+02 
92.635   4.34000000e+02 
92.599   4.58000000e+02 
92.563   4.53000000e+02 
92.527   4.60000000e+02 
92.491   4.82000000e+02 
92.455   4.55000000e+02 
92.420   4.84000000e+02 
92.384   5.34000000e+02 
92.348   5.61000000e+02 
92.312   6.12000000e+02 
92.276   5.96000000e+02 
92.240   6.43000000e+02 
92.204   7.20000000e+02 
92.168   6.63000000e+02 
92.132   7.58000000e+02 
92.096   7.55000000e+02 
92.060   7.86000000e+02 
92.024   8.35000000e+02 
91.988   8.76000000e+02 
91.952   9.16000000e+02 
91.916   9.52000000e+02 
91.880   9.73000000e+02 
91.845   1.04700000e+03 
91.809   1.12600000e+03 
91.773   1.15900000e+03 
91.737   1.23600000e+03 
91.701   1.30900000e+03 
91.665   1.42200000e+03 
91.629   1.48300000e+03 
91.593   1.48000000e+03 
91.557   1.52900000e+03 
91.521   1.61400000e+03 
91.485   1.77600000e+03 
91.449   1.77400000e+03 
91.413   1.89000000e+03 
91.377   1.90200000e+03 
91.341   1.91300000e+03 
91.305   1.97400000e+03 
91.270   2.06200000e+03 
91.234   2.09500000e+03 
91.198   2.12400000e+03 
91.162   2.12700000e+03 
91.126   2.09300000e+03 
91.090   2.11500000e+03 
91.054   1.96900000e+03 
91.018   1.99900000e+03 
90.982   1.90900000e+03 
90.946   1.87600000e+03 
90.910   1.84400000e+03 
90.874   1.65800000e+03 
90.838   1.57200000e+03 
90.802   1.47000000e+03 
90.766   1.32700000e+03 
90.730   1.24500000e+03 
90.695   1.20100000e+03 
90.659   1.14500000e+03 
90.623   9.70000000e+02 
90.587   9.54000000e+02 
90.551   8.63000000e+02 
90.515   7.75000000e+02 
90.479   6.56000000e+02 
90.443   6.30000000e+02 
90.407   6.23000000e+02 
90.371   5.46000000e+02 
90.335   4.87000000e+02 
90.299   4.57000000e+02 
90.263   4.32000000e+02 
90.227   4.06000000e+02 
90.191   3.92000000e+02 
90.155   3.22000000e+02 
90.120   3.13000000e+02 
90.084   3.40000000e+02 
90.048   3.00000000e+02 
90.012   2.88000000e+02 
89.976   2.65000000e+02 
89.940   2.59000000e+02 
89.904   2.47000000e+02 
89.868   2.13000000e+02 
89.832   2.24000000e+02 
89.796   1.75000000e+02 
89.760   2.02000000e+02 
89.724   1.93000000e+02 
89.688   1.89000000e+02 
89.652   1.81000000e+02 
89.616   1.58000000e+02 
89.580   1.97000000e+02 
89.545   1.44000000e+02 
89.509   1.48000000e+02 
89.473   1.67000000e+02 
89.437   1.62000000e+02 
89.401   1.44000000e+02 
89.365   1.59000000e+02 
89.329   1.57000000e+02 
89.293   1.25000000e+02 
89.257   1.56000000e+02 
89.221   1.43000000e+02 
89.185   1.39000000e+02 
89.149   1.46000000e+02 
89.113   1.56000000e+02 
89.077   1.41000000e+02 
89.041   1.36000000e+02 
89.005   1.35000000e+02 
88.970   1.35000000e+02 
88.934   1.47000000e+02 
88.898   1.08000000e+02 
88.862   1.25000000e+02 
88.826   1.11000000e+02 
88.790   1.30000000e+02 
88.754   1.15000000e+02 
88.718   1.20000000e+02 
88.682   1.29000000e+02 
88.646   1.05000000e+02 
88.610   1.23000000e+02 
88.574   1.37000000e+02 
88.538   1.27000000e+02 
88.502   1.04000000e+02 
88.466   1.10000000e+02 
88.430   1.24000000e+02 
88.395   1.12000000e+02 
88.359   1.17000000e+02 
88.323   1.15000000e+02 
88.287   1.18000000e+02 
88.251   1.13000000e+02 
88.215   1.21000000e+02 
88.179   1.19000000e+02 
88.143   1.31000000e+02 
88.107   1.07000000e+02 
88.071   1.17000000e+02 
88.035   1.06000000e+02 
87.999   1.14000000e+02 
87.963   1.10000000e+02 
87.927   9.10000000e+01 
87.891   1.15000000e+02 
87.855   1.05000000e+02 
87.820   9.80000000e+01 
87.784   9.90000000e+01 
87.748   1.04000000e+02 
87.712   9.60000000e+01 
87.676   1.23000000e+02 
87.640   9.80000000e+01 
87.604   9.90000000e+01 
87.568   9.70000000e+01 
87.532   8.90000000e+01 
87.496   1.01000000e+02 
87.460   1.04000000e+02 
87.424   9.10000000e+01 
87.388   1.01000000e+02 
87.352   1.20000000e+02 
87.316   1.02000000e+02 
87.280   1.15000000e+02 
87.245   1.07000000e+02 
87.209   1.06000000e+02 
87.173   1.09000000e+02 
87.137   9.10000000e+01 
87.101   1.09000000e+02 
87.065   1.04000000e+02 
87.029   1.05000000e+02 
86.993   9.60000000e+01 
86.957   7.30000000e+01 
86.921   9.30000000e+01 
86.885   8.20000000e+01 
86.849   1.03000000e+02 
86.813   9.30000000e+01 
86.777   9.10000000e+01 
86.741   9.90000000e+01 
86.705   8.50000000e+01 
86.670   9.50000000e+01 
86.634   1.10000000e+02 
86.598   9.60000000e+01 
86.562   8.80000000e+01 
86.526   1.06000000e+02 
86.490   9.20000000e+01 
86.454   8.60000000e+01 
86.418   1.01000000e+02 
86.382   9.70000000e+01 
86.346   9.70000000e+01 
86.310   9.70000000e+01 
86.274   9.60000000e+01 
86.238   9.90000000e+01 
86.202   9.40000000e+01 
86.166   9.40000000e+01 
86.130   9.60000000e+01 
86.095   9.40000000e+01 
86.059   9.30000000e+01 
86.023   1.14000000e+02 

