EXPERIMENT FILE
Version = 2

[ Experiment Parameters ]
Experiment Description= <none> 
Number_of_Regions_in_Experiment= 1 

Original_File_name= C:\alexesca\data\10082012_Au_4f_quick_45.xps 
Instrument= HP ESCA West
Date= 10-09-2012
Time=  16:06:51

[ Layer Parameters ]
Layer_Type= XPS

[ Region 1 Parameters ]
Region_Description = Au quick Dithered Scan Test        
BEcenter(eV) = 91.000000
BEwidth(eV) = 10.000000
BEstep(eV) = 0.035937
Dwell_Time(sec) = 0.500000
N_o_scans = 1  
N_o_Channels = 278  
Scan_mode = 0  (DITHERED)

[ L= 1 R= 1 ]
BEcenter= 91.000  
BEwidth= -9.955  
Excitation= 1486.600
Time_p_channel= 128.000 
Size= 278
95.977   4.34000000e+02 
95.941   4.11000000e+02 
95.905   4.29000000e+02 
95.870   3.79000000e+02 
95.834   3.83000000e+02 
95.798   4.32000000e+02 
95.762   4.19000000e+02 
95.726   4.31000000e+02 
95.690   4.06000000e+02 
95.654   3.60000000e+02 
95.618   3.60000000e+02 
95.582   3.55000000e+02 
95.546   3.28000000e+02 
95.510   3.03000000e+02 
95.474   3.04000000e+02 
95.438   2.99000000e+02 
95.402   2.91000000e+02 
95.366   2.59000000e+02 
95.330   2.75000000e+02 
95.295   2.29000000e+02 
95.259   2.29000000e+02 
95.223   2.06000000e+02 
95.187   1.94000000e+02 
95.151   1.79000000e+02 
95.115   1.81000000e+02 
95.079   1.58000000e+02 
95.043   1.69000000e+02 
95.007   1.39000000e+02 
94.971   1.73000000e+02 
94.935   1.33000000e+02 
94.899   1.36000000e+02 
94.863   1.44000000e+02 
94.827   1.17000000e+02 
94.791   1.42000000e+02 
94.755   1.19000000e+02 
94.720   1.42000000e+02 
94.684   1.17000000e+02 
94.648   1.11000000e+02 
94.612   1.11000000e+02 
94.576   9.50000000e+01 
94.540   1.10000000e+02 
94.504   8.70000000e+01 
94.468   1.08000000e+02 
94.432   9.90000000e+01 
94.396   9.10000000e+01 
94.360   1.25000000e+02 
94.324   8.50000000e+01 
94.288   1.16000000e+02 
94.252   9.50000000e+01 
94.216   9.00000000e+01 
94.180   1.05000000e+02 
94.145   9.70000000e+01 
94.109   9.20000000e+01 
94.073   1.03000000e+02 
94.037   9.90000000e+01 
94.001   1.16000000e+02 
93.965   9.20000000e+01 
93.929   1.01000000e+02 
93.893   9.60000000e+01 
93.857   9.70000000e+01 
93.821   1.19000000e+02 
93.785   1.28000000e+02 
93.749   1.06000000e+02 
93.713   1.26000000e+02 
93.677   1.27000000e+02 
93.641   1.38000000e+02 
93.605   1.42000000e+02 
93.570   1.62000000e+02 
93.534   1.67000000e+02 
93.498   1.43000000e+02 
93.462   1.54000000e+02 
93.426   1.73000000e+02 
93.390   1.86000000e+02 
93.354   2.18000000e+02 
93.318   1.80000000e+02 
93.282   1.90000000e+02 
93.246   1.92000000e+02 
93.210   2.43000000e+02 
93.174   2.35000000e+02 
93.138   2.55000000e+02 
93.102   2.36000000e+02 
93.066   2.66000000e+02 
93.030   2.96000000e+02 
92.995   2.60000000e+02 
92.959   3.14000000e+02 
92.923   3.17000000e+02 
92.887   3.29000000e+02 
92.851   3.54000000e+02 
92.815   3.35000000e+02 
92.779   3.65000000e+02 
92.743   3.63000000e+02 
92.707   3.49000000e+02 
92.671   4.15000000e+02 
92.635   3.96000000e+02 
92.599   4.19000000e+02 
92.563   4.59000000e+02 
92.527   4.67000000e+02 
92.491   4.49000000e+02 
92.455   5.06000000e+02 
92.420   4.68000000e+02 
92.384   4.59000000e+02 
92.348   4.92000000e+02 
92.312   4.92000000e+02 
92.276   4.97000000e+02 
92.240   4.82000000e+02 
92.204   5.28000000e+02 
92.168   4.80000000e+02 
92.132   4.88000000e+02 
92.096   4.96000000e+02 
92.060   4.66000000e+02 
92.024   4.70000000e+02 
91.988   4.47000000e+02 
91.952   4.49000000e+02 
91.916   4.36000000e+02 
91.880   4.13000000e+02 
91.845   3.65000000e+02 
91.809   3.46000000e+02 
91.773   3.24000000e+02 
91.737   3.19000000e+02 
91.701   2.89000000e+02 
91.665   2.65000000e+02 
91.629   2.41000000e+02 
91.593   2.64000000e+02 
91.557   2.00000000e+02 
91.521   2.17000000e+02 
91.485   1.71000000e+02 
91.449   1.55000000e+02 
91.413   1.59000000e+02 
91.377   1.50000000e+02 
91.341   1.47000000e+02 
91.305   1.21000000e+02 
91.270   1.31000000e+02 
91.234   1.16000000e+02 
91.198   1.12000000e+02 
91.162   1.12000000e+02 
91.126   1.01000000e+02 
91.090   9.70000000e+01 
91.054   7.90000000e+01 
91.018   9.20000000e+01 
90.982   9.30000000e+01 
90.946   7.80000000e+01 
90.910   7.30000000e+01 
90.874   7.30000000e+01 
90.838   7.50000000e+01 
90.802   5.00000000e+01 
90.766   6.10000000e+01 
90.730   5.80000000e+01 
90.695   7.10000000e+01 
90.659   6.40000000e+01 
90.623   5.00000000e+01 
90.587   6.10000000e+01 
90.551   6.10000000e+01 
90.515   4.70000000e+01 
90.479   5.30000000e+01 
90.443   4.80000000e+01 
90.407   3.60000000e+01 
90.371   4.50000000e+01 
90.335   4.50000000e+01 
90.299   4.30000000e+01 
90.263   4.50000000e+01 
90.227   2.50000000e+01 
90.191   4.80000000e+01 
90.155   4.40000000e+01 
90.120   3.20000000e+01 
90.084   4.50000000e+01 
90.048   4.30000000e+01 
90.012   4.70000000e+01 
89.976   3.30000000e+01 
89.940   4.20000000e+01 
89.904   3.70000000e+01 
89.868   3.40000000e+01 
89.832   3.60000000e+01 
89.796   3.00000000e+01 
89.760   4.00000000e+01 
89.724   3.70000000e+01 
89.688   3.60000000e+01 
89.652   3.70000000e+01 
89.616   3.60000000e+01 
89.580   3.70000000e+01 
89.545   3.60000000e+01 
89.509   3.00000000e+01 
89.473   3.50000000e+01 
89.437   3.70000000e+01 
89.401   3.90000000e+01 
89.365   2.80000000e+01 
89.329   3.30000000e+01 
89.293   3.60000000e+01 
89.257   3.10000000e+01 
89.221   3.10000000e+01 
89.185   4.00000000e+01 
89.149   3.20000000e+01 
89.113   3.40000000e+01 
89.077   3.00000000e+01 
89.041   3.50000000e+01 
89.005   3.60000000e+01 
88.970   3.00000000e+01 
88.934   1.70000000e+01 
88.898   4.90000000e+01 
88.862   3.00000000e+01 
88.826   2.50000000e+01 
88.790   4.10000000e+01 
88.754   2.50000000e+01 
88.718   3.20000000e+01 
88.682   4.00000000e+01 
88.646   2.30000000e+01 
88.610   3.00000000e+01 
88.574   2.80000000e+01 
88.538   4.60000000e+01 
88.502   3.10000000e+01 
88.466   2.70000000e+01 
88.430   3.70000000e+01 
88.395   2.90000000e+01 
88.359   3.60000000e+01 
88.323   3.20000000e+01 
88.287   2.80000000e+01 
88.251   3.50000000e+01 
88.215   2.10000000e+01 
88.179   2.60000000e+01 
88.143   2.70000000e+01 
88.107   3.40000000e+01 
88.071   2.80000000e+01 
88.035   3.30000000e+01 
87.999   3.70000000e+01 
87.963   3.00000000e+01 
87.927   2.70000000e+01 
87.891   2.90000000e+01 
87.855   2.80000000e+01 
87.820   2.80000000e+01 
87.784   2.70000000e+01 
87.748   2.40000000e+01 
87.712   3.60000000e+01 
87.676   3.50000000e+01 
87.640   2.40000000e+01 
87.604   2.60000000e+01 
87.568   3.40000000e+01 
87.532   2.30000000e+01 
87.496   2.40000000e+01 
87.460   2.40000000e+01 
87.424   3.50000000e+01 
87.388   2.90000000e+01 
87.352   2.80000000e+01 
87.316   3.70000000e+01 
87.280   4.00000000e+01 
87.245   2.20000000e+01 
87.209   3.70000000e+01 
87.173   3.10000000e+01 
87.137   2.60000000e+01 
87.101   3.20000000e+01 
87.065   2.60000000e+01 
87.029   2.20000000e+01 
86.993   3.10000000e+01 
86.957   2.40000000e+01 
86.921   2.10000000e+01 
86.885   3.00000000e+01 
86.849   3.00000000e+01 
86.813   3.40000000e+01 
86.777   2.40000000e+01 
86.741   3.30000000e+01 
86.705   1.30000000e+01 
86.670   3.70000000e+01 
86.634   3.40000000e+01 
86.598   2.60000000e+01 
86.562   3.40000000e+01 
86.526   2.20000000e+01 
86.490   2.60000000e+01 
86.454   3.90000000e+01 
86.418   3.10000000e+01 
86.382   3.00000000e+01 
86.346   3.20000000e+01 
86.310   3.60000000e+01 
86.274   2.20000000e+01 
86.238   2.50000000e+01 
86.202   2.60000000e+01 
86.166   2.70000000e+01 
86.130   2.70000000e+01 
86.095   3.10000000e+01 
86.059   2.80000000e+01 
86.023   2.80000000e+01 

