EXPERIMENT FILE
Version = 2

[ Experiment Parameters ]
Experiment Description= <none> 
Number_of_Regions_in_Experiment= 1 

Original_File_name= C:\alexesca\data\10082012_Au_4f_quick_55.xps 
Instrument= HP ESCA West
Date= 10-09-2012
Time=  16:22:01

[ Layer Parameters ]
Layer_Type= XPS

[ Region 1 Parameters ]
Region_Description = Au quick Dithered Scan Test        
BEcenter(eV) = 91.000000
BEwidth(eV) = 10.000000
BEstep(eV) = 0.035937
Dwell_Time(sec) = 0.500000
N_o_scans = 1  
N_o_Channels = 278  
Scan_mode = 0  (DITHERED)

[ L= 1 R= 1 ]
BEcenter= 91.000  
BEwidth= -9.955  
Excitation= 1486.600
Time_p_channel= 128.000 
Size= 278
95.977   3.40000000e+01 
95.941   3.10000000e+01 
95.905   2.70000000e+01 
95.870   3.10000000e+01 
95.834   2.80000000e+01 
95.798   2.80000000e+01 
95.762   2.60000000e+01 
95.726   2.00000000e+01 
95.690   2.50000000e+01 
95.654   2.10000000e+01 
95.618   2.10000000e+01 
95.582   2.20000000e+01 
95.546   2.20000000e+01 
95.510   1.90000000e+01 
95.474   2.40000000e+01 
95.438   1.80000000e+01 
95.402   1.80000000e+01 
95.366   1.80000000e+01 
95.330   1.70000000e+01 
95.295   2.20000000e+01 
95.259   1.50000000e+01 
95.223   1.30000000e+01 
95.187   1.70000000e+01 
95.151   1.60000000e+01 
95.115   1.80000000e+01 
95.079   1.20000000e+01 
95.043   1.90000000e+01 
95.007   1.50000000e+01 
94.971   1.50000000e+01 
94.935   1.10000000e+01 
94.899   1.50000000e+01 
94.863   2.10000000e+01 
94.827   1.30000000e+01 
94.791   1.90000000e+01 
94.755   9.00000000e+00 
94.720   1.20000000e+01 
94.684   1.20000000e+01 
94.648   1.50000000e+01 
94.612   1.10000000e+01 
94.576   1.60000000e+01 
94.540   1.10000000e+01 
94.504   2.00000000e+01 
94.468   1.20000000e+01 
94.432   7.00000000e+00 
94.396   1.20000000e+01 
94.360   1.50000000e+01 
94.324   1.20000000e+01 
94.288   1.70000000e+01 
94.252   1.60000000e+01 
94.216   1.90000000e+01 
94.180   1.40000000e+01 
94.145   2.10000000e+01 
94.109   1.30000000e+01 
94.073   1.50000000e+01 
94.037   2.00000000e+01 
94.001   1.40000000e+01 
93.965   1.40000000e+01 
93.929   2.60000000e+01 
93.893   2.20000000e+01 
93.857   2.10000000e+01 
93.821   1.90000000e+01 
93.785   1.90000000e+01 
93.749   2.20000000e+01 
93.713   2.20000000e+01 
93.677   2.90000000e+01 
93.641   2.60000000e+01 
93.605   2.50000000e+01 
93.570   3.10000000e+01 
93.534   2.30000000e+01 
93.498   4.30000000e+01 
93.462   3.70000000e+01 
93.426   3.20000000e+01 
93.390   4.10000000e+01 
93.354   4.30000000e+01 
93.318   4.60000000e+01 
93.282   4.30000000e+01 
93.246   5.20000000e+01 
93.210   4.20000000e+01 
93.174   3.80000000e+01 
93.138   4.90000000e+01 
93.102   4.70000000e+01 
93.066   5.20000000e+01 
93.030   5.90000000e+01 
92.995   5.00000000e+01 
92.959   6.30000000e+01 
92.923   5.20000000e+01 
92.887   6.10000000e+01 
92.851   4.80000000e+01 
92.815   5.20000000e+01 
92.779   5.70000000e+01 
92.743   4.90000000e+01 
92.707   4.80000000e+01 
92.671   5.30000000e+01 
92.635   3.90000000e+01 
92.599   4.00000000e+01 
92.563   4.00000000e+01 
92.527   4.40000000e+01 
92.491   3.60000000e+01 
92.455   4.40000000e+01 
92.420   3.70000000e+01 
92.384   3.80000000e+01 
92.348   3.10000000e+01 
92.312   3.70000000e+01 
92.276   3.40000000e+01 
92.240   2.90000000e+01 
92.204   2.80000000e+01 
92.168   2.50000000e+01 
92.132   2.70000000e+01 
92.096   2.80000000e+01 
92.060   3.00000000e+01 
92.024   2.30000000e+01 
91.988   2.30000000e+01 
91.952   2.00000000e+01 
91.916   2.00000000e+01 
91.880   1.60000000e+01 
91.845   1.80000000e+01 
91.809   1.60000000e+01 
91.773   1.50000000e+01 
91.737   2.20000000e+01 
91.701   1.60000000e+01 
91.665   9.00000000e+00 
91.629   1.90000000e+01 
91.593   1.10000000e+01 
91.557   1.70000000e+01 
91.521   1.90000000e+01 
91.485   2.10000000e+01 
91.449   8.00000000e+00 
91.413   1.50000000e+01 
91.377   1.50000000e+01 
91.341   6.00000000e+00 
91.305   1.70000000e+01 
91.270   1.70000000e+01 
91.234   1.20000000e+01 
91.198   8.00000000e+00 
91.162   7.00000000e+00 
91.126   1.40000000e+01 
91.090   9.00000000e+00 
91.054   1.10000000e+01 
91.018   5.00000000e+00 
90.982   1.00000000e+01 
90.946   9.00000000e+00 
90.910   6.00000000e+00 
90.874   9.00000000e+00 
90.838   1.00000000e+01 
90.802   4.00000000e+00 
90.766   7.00000000e+00 
90.730   9.00000000e+00 
90.695   8.00000000e+00 
90.659   6.00000000e+00 
90.623   9.00000000e+00 
90.587   8.00000000e+00 
90.551   7.00000000e+00 
90.515   4.00000000e+00 
90.479   1.00000000e+01 
90.443   5.00000000e+00 
90.407   4.00000000e+00 
90.371   2.00000000e+00 
90.335   6.00000000e+00 
90.299   3.00000000e+00 
90.263   3.00000000e+00 
90.227   3.00000000e+00 
90.191   4.00000000e+00 
90.155   6.00000000e+00 
90.120   2.00000000e+00 
90.084   8.00000000e+00 
90.048   6.00000000e+00 
90.012   7.00000000e+00 
89.976   9.00000000e+00 
89.940   3.00000000e+00 
89.904   6.00000000e+00 
89.868   7.00000000e+00 
89.832   5.00000000e+00 
89.796   2.00000000e+00 
89.760   0.00000000e+00 
89.724   4.00000000e+00 
89.688   7.00000000e+00 
89.652   7.00000000e+00 
89.616   6.00000000e+00 
89.580   5.00000000e+00 
89.545   6.00000000e+00 
89.509   5.00000000e+00 
89.473   3.00000000e+00 
89.437   6.00000000e+00 
89.401   3.00000000e+00 
89.365   2.00000000e+00 
89.329   3.00000000e+00 
89.293   4.00000000e+00 
89.257   3.00000000e+00 
89.221   3.00000000e+00 
89.185   3.00000000e+00 
89.149   2.00000000e+00 
89.113   7.00000000e+00 
89.077   4.00000000e+00 
89.041   4.00000000e+00 
89.005   6.00000000e+00 
88.970   3.00000000e+00 
88.934   2.00000000e+00 
88.898   5.00000000e+00 
88.862   3.00000000e+00 
88.826   4.00000000e+00 
88.790   3.00000000e+00 
88.754   2.00000000e+00 
88.718   4.00000000e+00 
88.682   5.00000000e+00 
88.646   3.00000000e+00 
88.610   4.00000000e+00 
88.574   6.00000000e+00 
88.538   7.00000000e+00 
88.502   2.00000000e+00 
88.466   3.00000000e+00 
88.430   4.00000000e+00 
88.395   3.00000000e+00 
88.359   4.00000000e+00 
88.323   4.00000000e+00 
88.287   4.00000000e+00 
88.251   7.00000000e+00 
88.215   9.00000000e+00 
88.179   6.00000000e+00 
88.143   1.00000000e+00 
88.107   1.00000000e+00 
88.071   8.00000000e+00 
88.035   7.00000000e+00 
87.999   2.00000000e+00 
87.963   5.00000000e+00 
87.927   5.00000000e+00 
87.891   4.00000000e+00 
87.855   5.00000000e+00 
87.820   4.00000000e+00 
87.784   8.00000000e+00 
87.748   0.00000000e+00 
87.712   7.00000000e+00 
87.676   3.00000000e+00 
87.640   5.00000000e+00 
87.604   6.00000000e+00 
87.568   8.00000000e+00 
87.532   6.00000000e+00 
87.496   3.00000000e+00 
87.460   4.00000000e+00 
87.424   1.00000000e+00 
87.388   5.00000000e+00 
87.352   6.00000000e+00 
87.316   2.00000000e+00 
87.280   8.00000000e+00 
87.245   5.00000000e+00 
87.209   6.00000000e+00 
87.173   5.00000000e+00 
87.137   1.00000000e+00 
87.101   4.00000000e+00 
87.065   9.00000000e+00 
87.029   2.00000000e+00 
86.993   3.00000000e+00 
86.957   4.00000000e+00 
86.921   2.00000000e+00 
86.885   1.00000000e+00 
86.849   0.00000000e+00 
86.813   4.00000000e+00 
86.777   3.00000000e+00 
86.741   2.00000000e+00 
86.705   2.00000000e+00 
86.670   3.00000000e+00 
86.634   2.00000000e+00 
86.598   5.00000000e+00 
86.562   4.00000000e+00 
86.526   5.00000000e+00 
86.490   3.00000000e+00 
86.454   3.00000000e+00 
86.418   2.00000000e+00 
86.382   0.00000000e+00 
86.346   2.00000000e+00 
86.310   3.00000000e+00 
86.274   4.00000000e+00 
86.238   4.00000000e+00 
86.202   4.00000000e+00 
86.166   3.00000000e+00 
86.130   8.00000000e+00 
86.095   3.00000000e+00 
86.059   2.00000000e+00 
86.023   2.00000000e+00 

