EXPERIMENT FILE
Version = 2

[ Experiment Parameters ]
Experiment Description= <none> 
Number_of_Regions_in_Experiment= 1 

Original_File_name= C:\alexesca\data\10082012_Au_4f_quick_35.xps 
Instrument= HP ESCA West
Date= 10-09-2012
Time=  15:52:13

[ Layer Parameters ]
Layer_Type= XPS

[ Region 1 Parameters ]
Region_Description = Au quick Dithered Scan Test        
BEcenter(eV) = 91.000000
BEwidth(eV) = 10.000000
BEstep(eV) = 0.035937
Dwell_Time(sec) = 0.500000
N_o_scans = 1  
N_o_Channels = 278  
Scan_mode = 0  (DITHERED)

[ L= 1 R= 1 ]
BEcenter= 91.000  
BEwidth= -9.955  
Excitation= 1486.600
Time_p_channel= 128.000 
Size= 278
95.977   1.58000000e+02 
95.941   1.50000000e+02 
95.905   1.49000000e+02 
95.870   1.47000000e+02 
95.834   1.57000000e+02 
95.798   1.77000000e+02 
95.762   1.59000000e+02 
95.726   1.88000000e+02 
95.690   1.86000000e+02 
95.654   1.83000000e+02 
95.618   1.70000000e+02 
95.582   2.32000000e+02 
95.546   1.96000000e+02 
95.510   2.45000000e+02 
95.474   2.46000000e+02 
95.438   2.69000000e+02 
95.402   2.32000000e+02 
95.366   2.69000000e+02 
95.330   2.56000000e+02 
95.295   2.88000000e+02 
95.259   2.52000000e+02 
95.223   3.07000000e+02 
95.187   2.73000000e+02 
95.151   2.83000000e+02 
95.115   2.95000000e+02 
95.079   3.06000000e+02 
95.043   3.03000000e+02 
95.007   2.86000000e+02 
94.971   3.24000000e+02 
94.935   3.00000000e+02 
94.899   3.23000000e+02 
94.863   3.15000000e+02 
94.827   3.70000000e+02 
94.791   3.36000000e+02 
94.755   3.10000000e+02 
94.720   3.62000000e+02 
94.684   3.40000000e+02 
94.648   3.45000000e+02 
94.612   3.16000000e+02 
94.576   2.99000000e+02 
94.540   3.05000000e+02 
94.504   3.25000000e+02 
94.468   3.02000000e+02 
94.432   2.85000000e+02 
94.396   2.69000000e+02 
94.360   2.66000000e+02 
94.324   2.26000000e+02 
94.288   2.53000000e+02 
94.252   1.99000000e+02 
94.216   1.87000000e+02 
94.180   1.90000000e+02 
94.145   1.96000000e+02 
94.109   1.64000000e+02 
94.073   1.49000000e+02 
94.037   1.29000000e+02 
94.001   1.22000000e+02 
93.965   1.41000000e+02 
93.929   1.24000000e+02 
93.893   1.03000000e+02 
93.857   1.03000000e+02 
93.821   9.50000000e+01 
93.785   1.11000000e+02 
93.749   9.40000000e+01 
93.713   1.06000000e+02 
93.677   9.00000000e+01 
93.641   9.10000000e+01 
93.605   9.30000000e+01 
93.570   7.80000000e+01 
93.534   8.80000000e+01 
93.498   8.40000000e+01 
93.462   6.40000000e+01 
93.426   8.20000000e+01 
93.390   7.60000000e+01 
93.354   8.00000000e+01 
93.318   7.80000000e+01 
93.282   7.70000000e+01 
93.246   7.80000000e+01 
93.210   7.90000000e+01 
93.174   7.70000000e+01 
93.138   8.80000000e+01 
93.102   8.00000000e+01 
93.066   7.40000000e+01 
93.030   8.20000000e+01 
92.995   9.20000000e+01 
92.959   9.40000000e+01 
92.923   8.90000000e+01 
92.887   1.00000000e+02 
92.851   8.60000000e+01 
92.815   7.20000000e+01 
92.779   9.80000000e+01 
92.743   8.70000000e+01 
92.707   1.09000000e+02 
92.671   9.90000000e+01 
92.635   9.00000000e+01 
92.599   1.24000000e+02 
92.563   1.33000000e+02 
92.527   1.21000000e+02 
92.491   1.34000000e+02 
92.455   1.33000000e+02 
92.420   1.15000000e+02 
92.384   1.42000000e+02 
92.348   1.53000000e+02 
92.312   1.33000000e+02 
92.276   1.53000000e+02 
92.240   1.70000000e+02 
92.204   1.82000000e+02 
92.168   1.70000000e+02 
92.132   1.85000000e+02 
92.096   1.75000000e+02 
92.060   2.05000000e+02 
92.024   1.79000000e+02 
91.988   2.15000000e+02 
91.952   2.35000000e+02 
91.916   2.36000000e+02 
91.880   2.37000000e+02 
91.845   2.55000000e+02 
91.809   2.68000000e+02 
91.773   2.72000000e+02 
91.737   2.63000000e+02 
91.701   2.79000000e+02 
91.665   2.94000000e+02 
91.629   2.78000000e+02 
91.593   2.93000000e+02 
91.557   3.30000000e+02 
91.521   3.55000000e+02 
91.485   3.43000000e+02 
91.449   3.36000000e+02 
91.413   3.53000000e+02 
91.377   3.23000000e+02 
91.341   3.43000000e+02 
91.305   3.14000000e+02 
91.270   3.52000000e+02 
91.234   3.90000000e+02 
91.198   3.70000000e+02 
91.162   4.30000000e+02 
91.126   3.75000000e+02 
91.090   3.47000000e+02 
91.054   4.01000000e+02 
91.018   3.85000000e+02 
90.982   3.70000000e+02 
90.946   3.80000000e+02 
90.910   3.82000000e+02 
90.874   3.51000000e+02 
90.838   3.29000000e+02 
90.802   3.35000000e+02 
90.766   3.31000000e+02 
90.730   3.63000000e+02 
90.695   2.75000000e+02 
90.659   2.96000000e+02 
90.623   2.62000000e+02 
90.587   2.34000000e+02 
90.551   2.23000000e+02 
90.515   1.69000000e+02 
90.479   1.97000000e+02 
90.443   1.60000000e+02 
90.407   1.48000000e+02 
90.371   1.31000000e+02 
90.335   1.21000000e+02 
90.299   1.05000000e+02 
90.263   9.00000000e+01 
90.227   8.70000000e+01 
90.191   1.03000000e+02 
90.155   7.80000000e+01 
90.120   6.90000000e+01 
90.084   7.20000000e+01 
90.048   7.00000000e+01 
90.012   5.30000000e+01 
89.976   6.60000000e+01 
89.940   5.40000000e+01 
89.904   5.40000000e+01 
89.868   6.10000000e+01 
89.832   6.10000000e+01 
89.796   3.90000000e+01 
89.760   3.80000000e+01 
89.724   4.50000000e+01 
89.688   3.40000000e+01 
89.652   4.80000000e+01 
89.616   2.80000000e+01 
89.580   3.90000000e+01 
89.545   3.70000000e+01 
89.509   4.20000000e+01 
89.473   3.40000000e+01 
89.437   4.40000000e+01 
89.401   3.60000000e+01 
89.365   4.70000000e+01 
89.329   4.00000000e+01 
89.293   3.10000000e+01 
89.257   2.60000000e+01 
89.221   3.00000000e+01 
89.185   3.50000000e+01 
89.149   3.00000000e+01 
89.113   3.10000000e+01 
89.077   3.40000000e+01 
89.041   2.80000000e+01 
89.005   2.70000000e+01 
88.970   3.20000000e+01 
88.934   4.00000000e+01 
88.898   2.40000000e+01 
88.862   3.60000000e+01 
88.826   3.80000000e+01 
88.790   3.70000000e+01 
88.754   3.60000000e+01 
88.718   3.00000000e+01 
88.682   2.80000000e+01 
88.646   2.80000000e+01 
88.610   2.60000000e+01 
88.574   3.30000000e+01 
88.538   3.50000000e+01 
88.502   4.30000000e+01 
88.466   3.00000000e+01 
88.430   2.60000000e+01 
88.395   3.10000000e+01 
88.359   3.70000000e+01 
88.323   2.70000000e+01 
88.287   2.90000000e+01 
88.251   2.50000000e+01 
88.215   2.90000000e+01 
88.179   2.70000000e+01 
88.143   3.30000000e+01 
88.107   2.00000000e+01 
88.071   2.40000000e+01 
88.035   3.80000000e+01 
87.999   1.60000000e+01 
87.963   2.20000000e+01 
87.927   2.80000000e+01 
87.891   2.60000000e+01 
87.855   3.10000000e+01 
87.820   2.00000000e+01 
87.784   2.90000000e+01 
87.748   2.80000000e+01 
87.712   2.30000000e+01 
87.676   3.30000000e+01 
87.640   2.70000000e+01 
87.604   2.20000000e+01 
87.568   2.70000000e+01 
87.532   2.10000000e+01 
87.496   2.70000000e+01 
87.460   2.70000000e+01 
87.424   2.80000000e+01 
87.388   2.90000000e+01 
87.352   4.40000000e+01 
87.316   2.40000000e+01 
87.280   2.90000000e+01 
87.245   2.50000000e+01 
87.209   2.90000000e+01 
87.173   1.80000000e+01 
87.137   2.90000000e+01 
87.101   3.00000000e+01 
87.065   2.10000000e+01 
87.029   2.60000000e+01 
86.993   2.80000000e+01 
86.957   3.00000000e+01 
86.921   2.70000000e+01 
86.885   3.50000000e+01 
86.849   2.80000000e+01 
86.813   1.90000000e+01 
86.777   2.90000000e+01 
86.741   3.50000000e+01 
86.705   3.20000000e+01 
86.670   2.30000000e+01 
86.634   2.50000000e+01 
86.598   3.40000000e+01 
86.562   2.60000000e+01 
86.526   3.30000000e+01 
86.490   2.30000000e+01 
86.454   2.70000000e+01 
86.418   2.40000000e+01 
86.382   3.10000000e+01 
86.346   2.30000000e+01 
86.310   2.50000000e+01 
86.274   2.80000000e+01 
86.238   2.40000000e+01 
86.202   2.90000000e+01 
86.166   2.50000000e+01 
86.130   2.60000000e+01 
86.095   2.60000000e+01 
86.059   3.00000000e+01 
86.023   2.20000000e+01 

