EXPERIMENT FILE
Version = 2

[ Experiment Parameters ]
Experiment Description= <none> 
Number_of_Regions_in_Experiment= 1 

Original_File_name= C:\alexesca\data\10082012_Au_4f_quick_50.xps 
Instrument= HP ESCA West
Date= 10-09-2012
Time=  16:15:02

[ Layer Parameters ]
Layer_Type= XPS

[ Region 1 Parameters ]
Region_Description = Au quick Dithered Scan Test        
BEcenter(eV) = 91.000000
BEwidth(eV) = 10.000000
BEstep(eV) = 0.035937
Dwell_Time(sec) = 0.500000
N_o_scans = 1  
N_o_Channels = 278  
Scan_mode = 0  (DITHERED)

[ L= 1 R= 1 ]
BEcenter= 91.000  
BEwidth= -9.955  
Excitation= 1486.600
Time_p_channel= 128.000 
Size= 278
95.977   1.19000000e+02 
95.941   1.23000000e+02 
95.905   1.20000000e+02 
95.870   1.31000000e+02 
95.834   1.24000000e+02 
95.798   1.02000000e+02 
95.762   1.19000000e+02 
95.726   1.05000000e+02 
95.690   8.90000000e+01 
95.654   9.90000000e+01 
95.618   8.20000000e+01 
95.582   8.60000000e+01 
95.546   8.60000000e+01 
95.510   6.90000000e+01 
95.474   6.70000000e+01 
95.438   6.20000000e+01 
95.402   7.40000000e+01 
95.366   7.20000000e+01 
95.330   5.80000000e+01 
95.295   5.60000000e+01 
95.259   5.70000000e+01 
95.223   6.10000000e+01 
95.187   5.40000000e+01 
95.151   4.70000000e+01 
95.115   5.90000000e+01 
95.079   5.60000000e+01 
95.043   5.20000000e+01 
95.007   4.00000000e+01 
94.971   4.60000000e+01 
94.935   6.00000000e+01 
94.899   4.70000000e+01 
94.863   4.30000000e+01 
94.827   5.50000000e+01 
94.791   5.40000000e+01 
94.755   4.10000000e+01 
94.720   2.90000000e+01 
94.684   3.40000000e+01 
94.648   4.30000000e+01 
94.612   2.90000000e+01 
94.576   3.80000000e+01 
94.540   3.40000000e+01 
94.504   4.90000000e+01 
94.468   5.10000000e+01 
94.432   4.20000000e+01 
94.396   4.90000000e+01 
94.360   3.50000000e+01 
94.324   4.80000000e+01 
94.288   4.20000000e+01 
94.252   3.90000000e+01 
94.216   3.40000000e+01 
94.180   5.70000000e+01 
94.145   6.00000000e+01 
94.109   4.40000000e+01 
94.073   4.70000000e+01 
94.037   5.30000000e+01 
94.001   5.10000000e+01 
93.965   5.10000000e+01 
93.929   3.40000000e+01 
93.893   6.20000000e+01 
93.857   6.40000000e+01 
93.821   5.10000000e+01 
93.785   8.00000000e+01 
93.749   6.80000000e+01 
93.713   6.60000000e+01 
93.677   6.80000000e+01 
93.641   6.10000000e+01 
93.605   9.20000000e+01 
93.570   7.50000000e+01 
93.534   9.00000000e+01 
93.498   8.20000000e+01 
93.462   1.09000000e+02 
93.426   8.80000000e+01 
93.390   9.00000000e+01 
93.354   1.12000000e+02 
93.318   1.19000000e+02 
93.282   1.23000000e+02 
93.246   1.26000000e+02 
93.210   1.35000000e+02 
93.174   1.37000000e+02 
93.138   1.41000000e+02 
93.102   1.72000000e+02 
93.066   1.79000000e+02 
93.030   1.64000000e+02 
92.995   1.72000000e+02 
92.959   2.24000000e+02 
92.923   1.92000000e+02 
92.887   2.09000000e+02 
92.851   1.93000000e+02 
92.815   1.90000000e+02 
92.779   2.13000000e+02 
92.743   2.13000000e+02 
92.707   2.36000000e+02 
92.671   1.94000000e+02 
92.635   2.11000000e+02 
92.599   2.25000000e+02 
92.563   2.24000000e+02 
92.527   2.22000000e+02 
92.491   2.01000000e+02 
92.455   1.84000000e+02 
92.420   1.79000000e+02 
92.384   1.82000000e+02 
92.348   1.48000000e+02 
92.312   1.63000000e+02 
92.276   1.33000000e+02 
92.240   1.70000000e+02 
92.204   1.23000000e+02 
92.168   1.45000000e+02 
92.132   1.17000000e+02 
92.096   1.12000000e+02 
92.060   1.13000000e+02 
92.024   8.40000000e+01 
91.988   9.20000000e+01 
91.952   8.30000000e+01 
91.916   7.70000000e+01 
91.880   6.80000000e+01 
91.845   7.50000000e+01 
91.809   7.00000000e+01 
91.773   7.20000000e+01 
91.737   5.70000000e+01 
91.701   6.30000000e+01 
91.665   7.50000000e+01 
91.629   5.40000000e+01 
91.593   5.10000000e+01 
91.557   5.40000000e+01 
91.521   5.00000000e+01 
91.485   3.50000000e+01 
91.449   3.90000000e+01 
91.413   3.80000000e+01 
91.377   4.70000000e+01 
91.341   4.00000000e+01 
91.305   4.20000000e+01 
91.270   2.60000000e+01 
91.234   3.20000000e+01 
91.198   3.40000000e+01 
91.162   2.00000000e+01 
91.126   1.80000000e+01 
91.090   3.60000000e+01 
91.054   3.00000000e+01 
91.018   2.90000000e+01 
90.982   2.60000000e+01 
90.946   2.40000000e+01 
90.910   2.20000000e+01 
90.874   3.60000000e+01 
90.838   3.50000000e+01 
90.802   2.00000000e+01 
90.766   2.10000000e+01 
90.730   2.00000000e+01 
90.695   2.10000000e+01 
90.659   1.60000000e+01 
90.623   2.00000000e+01 
90.587   2.40000000e+01 
90.551   1.50000000e+01 
90.515   2.00000000e+01 
90.479   1.30000000e+01 
90.443   1.80000000e+01 
90.407   1.40000000e+01 
90.371   1.80000000e+01 
90.335   1.40000000e+01 
90.299   1.00000000e+01 
90.263   1.60000000e+01 
90.227   1.30000000e+01 
90.191   2.00000000e+01 
90.155   1.70000000e+01 
90.120   1.60000000e+01 
90.084   1.20000000e+01 
90.048   1.80000000e+01 
90.012   2.10000000e+01 
89.976   9.00000000e+00 
89.940   1.50000000e+01 
89.904   2.10000000e+01 
89.868   1.40000000e+01 
89.832   1.40000000e+01 
89.796   1.90000000e+01 
89.760   1.80000000e+01 
89.724   1.70000000e+01 
89.688   1.10000000e+01 
89.652   1.70000000e+01 
89.616   1.10000000e+01 
89.580   1.00000000e+01 
89.545   1.30000000e+01 
89.509   1.70000000e+01 
89.473   1.60000000e+01 
89.437   1.10000000e+01 
89.401   1.20000000e+01 
89.365   1.70000000e+01 
89.329   1.50000000e+01 
89.293   1.40000000e+01 
89.257   9.00000000e+00 
89.221   1.10000000e+01 
89.185   1.10000000e+01 
89.149   1.20000000e+01 
89.113   6.00000000e+00 
89.077   1.30000000e+01 
89.041   8.00000000e+00 
89.005   1.30000000e+01 
88.970   1.40000000e+01 
88.934   1.40000000e+01 
88.898   1.30000000e+01 
88.862   1.10000000e+01 
88.826   1.80000000e+01 
88.790   1.40000000e+01 
88.754   2.30000000e+01 
88.718   1.80000000e+01 
88.682   1.40000000e+01 
88.646   1.00000000e+01 
88.610   1.70000000e+01 
88.574   1.10000000e+01 
88.538   1.00000000e+01 
88.502   9.00000000e+00 
88.466   1.10000000e+01 
88.430   1.00000000e+01 
88.395   1.60000000e+01 
88.359   1.30000000e+01 
88.323   1.00000000e+01 
88.287   1.50000000e+01 
88.251   1.30000000e+01 
88.215   9.00000000e+00 
88.179   1.60000000e+01 
88.143   1.00000000e+01 
88.107   1.10000000e+01 
88.071   1.50000000e+01 
88.035   7.00000000e+00 
87.999   1.50000000e+01 
87.963   1.30000000e+01 
87.927   1.10000000e+01 
87.891   1.40000000e+01 
87.855   6.00000000e+00 
87.820   8.00000000e+00 
87.784   8.00000000e+00 
87.748   8.00000000e+00 
87.712   1.60000000e+01 
87.676   1.20000000e+01 
87.640   1.40000000e+01 
87.604   1.00000000e+01 
87.568   1.50000000e+01 
87.532   1.30000000e+01 
87.496   8.00000000e+00 
87.460   7.00000000e+00 
87.424   1.40000000e+01 
87.388   1.90000000e+01 
87.352   1.80000000e+01 
87.316   1.50000000e+01 
87.280   1.10000000e+01 
87.245   1.30000000e+01 
87.209   9.00000000e+00 
87.173   1.10000000e+01 
87.137   1.00000000e+01 
87.101   1.40000000e+01 
87.065   1.50000000e+01 
87.029   1.20000000e+01 
86.993   1.00000000e+01 
86.957   1.10000000e+01 
86.921   1.30000000e+01 
86.885   8.00000000e+00 
86.849   9.00000000e+00 
86.813   1.00000000e+01 
86.777   1.10000000e+01 
86.741   8.00000000e+00 
86.705   1.00000000e+01 
86.670   1.10000000e+01 
86.634   1.30000000e+01 
86.598   1.50000000e+01 
86.562   1.20000000e+01 
86.526   1.90000000e+01 
86.490   1.00000000e+01 
86.454   1.90000000e+01 
86.418   1.00000000e+01 
86.382   1.00000000e+01 
86.346   1.80000000e+01 
86.310   1.20000000e+01 
86.274   1.00000000e+01 
86.238   1.40000000e+01 
86.202   1.30000000e+01 
86.166   1.00000000e+01 
86.130   1.30000000e+01 
86.095   2.00000000e+01 
86.059   1.30000000e+01 
86.023   1.00000000e+01 

