EXPERIMENT FILE
Version = 2

[ Experiment Parameters ]
Experiment Description= <none> 
Number_of_Regions_in_Experiment= 1 

Original_File_name= C:\alexesca\data\10082012_Au_4f_quick_40.xps 
Instrument= HP ESCA West
Date= 10-09-2012
Time=  15:58:16

[ Layer Parameters ]
Layer_Type= XPS

[ Region 1 Parameters ]
Region_Description = Au quick Dithered Scan Test        
BEcenter(eV) = 91.000000
BEwidth(eV) = 10.000000
BEstep(eV) = 0.035937
Dwell_Time(sec) = 0.500000
N_o_scans = 1  
N_o_Channels = 278  
Scan_mode = 0  (DITHERED)

[ L= 1 R= 1 ]
BEcenter= 91.000  
BEwidth= -9.955  
Excitation= 1486.600
Time_p_channel= 128.000 
Size= 278
95.977   3.26000000e+02 
95.941   3.31000000e+02 
95.905   3.60000000e+02 
95.870   3.49000000e+02 
95.834   3.49000000e+02 
95.798   3.52000000e+02 
95.762   3.73000000e+02 
95.726   3.24000000e+02 
95.690   3.92000000e+02 
95.654   3.99000000e+02 
95.618   3.61000000e+02 
95.582   4.06000000e+02 
95.546   3.77000000e+02 
95.510   4.07000000e+02 
95.474   4.01000000e+02 
95.438   4.05000000e+02 
95.402   4.37000000e+02 
95.366   4.27000000e+02 
95.330   3.70000000e+02 
95.295   4.16000000e+02 
95.259   3.93000000e+02 
95.223   3.70000000e+02 
95.187   4.22000000e+02 
95.151   4.02000000e+02 
95.115   4.08000000e+02 
95.079   3.64000000e+02 
95.043   3.69000000e+02 
95.007   3.65000000e+02 
94.971   3.28000000e+02 
94.935   3.29000000e+02 
94.899   2.91000000e+02 
94.863   3.13000000e+02 
94.827   2.72000000e+02 
94.791   2.39000000e+02 
94.755   2.15000000e+02 
94.720   2.12000000e+02 
94.684   2.11000000e+02 
94.648   2.00000000e+02 
94.612   1.87000000e+02 
94.576   1.52000000e+02 
94.540   1.57000000e+02 
94.504   1.36000000e+02 
94.468   1.40000000e+02 
94.432   1.38000000e+02 
94.396   1.28000000e+02 
94.360   1.22000000e+02 
94.324   1.29000000e+02 
94.288   1.17000000e+02 
94.252   1.22000000e+02 
94.216   1.10000000e+02 
94.180   1.15000000e+02 
94.145   9.90000000e+01 
94.109   1.05000000e+02 
94.073   1.08000000e+02 
94.037   9.40000000e+01 
94.001   1.07000000e+02 
93.965   1.35000000e+02 
93.929   1.20000000e+02 
93.893   9.70000000e+01 
93.857   1.00000000e+02 
93.821   9.20000000e+01 
93.785   1.10000000e+02 
93.749   1.01000000e+02 
93.713   1.01000000e+02 
93.677   9.50000000e+01 
93.641   1.03000000e+02 
93.605   1.08000000e+02 
93.570   1.00000000e+02 
93.534   1.10000000e+02 
93.498   1.17000000e+02 
93.462   1.27000000e+02 
93.426   1.09000000e+02 
93.390   1.24000000e+02 
93.354   1.15000000e+02 
93.318   1.33000000e+02 
93.282   1.24000000e+02 
93.246   1.46000000e+02 
93.210   1.47000000e+02 
93.174   1.55000000e+02 
93.138   1.51000000e+02 
93.102   1.54000000e+02 
93.066   1.75000000e+02 
93.030   1.88000000e+02 
92.995   2.00000000e+02 
92.959   1.55000000e+02 
92.923   2.04000000e+02 
92.887   1.90000000e+02 
92.851   2.02000000e+02 
92.815   2.37000000e+02 
92.779   2.13000000e+02 
92.743   2.54000000e+02 
92.707   2.73000000e+02 
92.671   2.69000000e+02 
92.635   2.43000000e+02 
92.599   2.80000000e+02 
92.563   3.02000000e+02 
92.527   2.91000000e+02 
92.491   2.92000000e+02 
92.455   3.33000000e+02 
92.420   3.31000000e+02 
92.384   3.61000000e+02 
92.348   3.56000000e+02 
92.312   3.63000000e+02 
92.276   3.65000000e+02 
92.240   3.89000000e+02 
92.204   3.72000000e+02 
92.168   3.66000000e+02 
92.132   3.91000000e+02 
92.096   4.54000000e+02 
92.060   4.15000000e+02 
92.024   4.06000000e+02 
91.988   4.30000000e+02 
91.952   4.59000000e+02 
91.916   4.57000000e+02 
91.880   4.85000000e+02 
91.845   5.00000000e+02 
91.809   5.16000000e+02 
91.773   4.49000000e+02 
91.737   5.18000000e+02 
91.701   4.82000000e+02 
91.665   4.63000000e+02 
91.629   4.64000000e+02 
91.593   4.57000000e+02 
91.557   4.87000000e+02 
91.521   4.51000000e+02 
91.485   4.75000000e+02 
91.449   4.59000000e+02 
91.413   4.53000000e+02 
91.377   4.41000000e+02 
91.341   3.91000000e+02 
91.305   3.88000000e+02 
91.270   3.57000000e+02 
91.234   3.65000000e+02 
91.198   3.38000000e+02 
91.162   2.67000000e+02 
91.126   2.63000000e+02 
91.090   2.45000000e+02 
91.054   2.00000000e+02 
91.018   2.08000000e+02 
90.982   1.84000000e+02 
90.946   1.97000000e+02 
90.910   1.76000000e+02 
90.874   1.59000000e+02 
90.838   1.36000000e+02 
90.802   1.33000000e+02 
90.766   1.12000000e+02 
90.730   1.21000000e+02 
90.695   1.12000000e+02 
90.659   9.90000000e+01 
90.623   7.30000000e+01 
90.587   9.30000000e+01 
90.551   7.50000000e+01 
90.515   8.40000000e+01 
90.479   6.00000000e+01 
90.443   6.10000000e+01 
90.407   8.30000000e+01 
90.371   7.20000000e+01 
90.335   6.80000000e+01 
90.299   7.50000000e+01 
90.263   5.50000000e+01 
90.227   5.00000000e+01 
90.191   6.30000000e+01 
90.155   4.70000000e+01 
90.120   5.30000000e+01 
90.084   5.40000000e+01 
90.048   4.50000000e+01 
90.012   4.10000000e+01 
89.976   5.00000000e+01 
89.940   5.60000000e+01 
89.904   4.60000000e+01 
89.868   5.20000000e+01 
89.832   4.70000000e+01 
89.796   4.10000000e+01 
89.760   5.10000000e+01 
89.724   4.50000000e+01 
89.688   4.80000000e+01 
89.652   2.60000000e+01 
89.616   4.50000000e+01 
89.580   4.90000000e+01 
89.545   3.80000000e+01 
89.509   4.80000000e+01 
89.473   4.50000000e+01 
89.437   3.70000000e+01 
89.401   3.40000000e+01 
89.365   4.70000000e+01 
89.329   4.30000000e+01 
89.293   4.20000000e+01 
89.257   4.00000000e+01 
89.221   5.20000000e+01 
89.185   4.00000000e+01 
89.149   3.90000000e+01 
89.113   2.50000000e+01 
89.077   3.20000000e+01 
89.041   2.90000000e+01 
89.005   3.60000000e+01 
88.970   3.80000000e+01 
88.934   4.50000000e+01 
88.898   3.90000000e+01 
88.862   4.10000000e+01 
88.826   3.20000000e+01 
88.790   2.50000000e+01 
88.754   2.40000000e+01 
88.718   3.40000000e+01 
88.682   4.20000000e+01 
88.646   3.00000000e+01 
88.610   3.60000000e+01 
88.574   3.70000000e+01 
88.538   3.30000000e+01 
88.502   3.60000000e+01 
88.466   4.90000000e+01 
88.430   3.30000000e+01 
88.395   4.10000000e+01 
88.359   3.60000000e+01 
88.323   3.70000000e+01 
88.287   3.00000000e+01 
88.251   4.10000000e+01 
88.215   4.00000000e+01 
88.179   3.40000000e+01 
88.143   3.60000000e+01 
88.107   4.50000000e+01 
88.071   3.10000000e+01 
88.035   3.70000000e+01 
87.999   2.40000000e+01 
87.963   3.00000000e+01 
87.927   2.90000000e+01 
87.891   3.00000000e+01 
87.855   4.40000000e+01 
87.820   2.80000000e+01 
87.784   3.70000000e+01 
87.748   2.40000000e+01 
87.712   2.70000000e+01 
87.676   3.20000000e+01 
87.640   2.70000000e+01 
87.604   4.10000000e+01 
87.568   3.40000000e+01 
87.532   3.40000000e+01 
87.496   2.80000000e+01 
87.460   3.10000000e+01 
87.424   3.20000000e+01 
87.388   4.10000000e+01 
87.352   3.90000000e+01 
87.316   3.10000000e+01 
87.280   3.90000000e+01 
87.245   3.30000000e+01 
87.209   2.80000000e+01 
87.173   2.90000000e+01 
87.137   2.40000000e+01 
87.101   3.30000000e+01 
87.065   3.00000000e+01 
87.029   3.10000000e+01 
86.993   2.90000000e+01 
86.957   3.30000000e+01 
86.921   3.80000000e+01 
86.885   3.40000000e+01 
86.849   3.30000000e+01 
86.813   2.60000000e+01 
86.777   3.40000000e+01 
86.741   3.10000000e+01 
86.705   4.50000000e+01 
86.670   2.30000000e+01 
86.634   3.50000000e+01 
86.598   2.60000000e+01 
86.562   2.30000000e+01 
86.526   3.70000000e+01 
86.490   2.40000000e+01 
86.454   2.70000000e+01 
86.418   3.40000000e+01 
86.382   2.60000000e+01 
86.346   2.60000000e+01 
86.310   3.40000000e+01 
86.274   3.00000000e+01 
86.238   2.20000000e+01 
86.202   2.70000000e+01 
86.166   2.60000000e+01 
86.130   4.30000000e+01 
86.095   1.70000000e+01 
86.059   3.40000000e+01 
86.023   4.40000000e+01 

