EXPERIMENT FILE
Version = 2

[ Experiment Parameters ]
Experiment Description= <none> 
Number_of_Regions_in_Experiment= 1 

Original_File_name= C:\alexesca\data\10122012_Au _4f_quick_62nuetral-32.xps 
Instrument= HP ESCA West
Date= 10-12-2012
Time=  17:40:52

[ Layer Parameters ]
Layer_Type= XPS

[ Region 1 Parameters ]
Region_Description = Au quick Dithered Scan Test        
BEcenter(eV) = 91.000000
BEwidth(eV) = 10.000000
BEstep(eV) = 0.035937
Dwell_Time(sec) = 0.500000
N_o_scans = 1  
N_o_Channels = 278  
Scan_mode = 0  (DITHERED)

[ L= 1 R= 1 ]
BEcenter= 91.000  
BEwidth= -9.955  
Excitation= 1486.600
Time_p_channel= 128.000 
Size= 278
95.977   1.47000000e+02 
95.941   1.45000000e+02 
95.905   1.67000000e+02 
95.870   1.78000000e+02 
95.834   1.81000000e+02 
95.798   1.57000000e+02 
95.762   1.95000000e+02 
95.726   2.21000000e+02 
95.690   2.44000000e+02 
95.654   2.80000000e+02 
95.618   1.97000000e+02 
95.582   2.83000000e+02 
95.546   2.71000000e+02 
95.510   2.37000000e+02 
95.474   2.74000000e+02 
95.438   3.14000000e+02 
95.402   3.28000000e+02 
95.366   3.17000000e+02 
95.330   3.20000000e+02 
95.295   3.04000000e+02 
95.259   2.87000000e+02 
95.223   3.08000000e+02 
95.187   2.84000000e+02 
95.151   2.88000000e+02 
95.115   2.73000000e+02 
95.079   2.73000000e+02 
95.043   2.36000000e+02 
95.007   2.38000000e+02 
94.971   2.37000000e+02 
94.935   1.78000000e+02 
94.899   1.83000000e+02 
94.863   1.49000000e+02 
94.827   1.32000000e+02 
94.791   1.40000000e+02 
94.755   1.33000000e+02 
94.720   1.01000000e+02 
94.684   1.05000000e+02 
94.648   8.80000000e+01 
94.612   7.80000000e+01 
94.576   1.02000000e+02 
94.540   7.90000000e+01 
94.504   9.70000000e+01 
94.468   9.50000000e+01 
94.432   8.30000000e+01 
94.396   6.60000000e+01 
94.360   8.30000000e+01 
94.324   6.10000000e+01 
94.288   6.70000000e+01 
94.252   5.60000000e+01 
94.216   4.10000000e+01 
94.180   6.00000000e+01 
94.145   5.90000000e+01 
94.109   6.20000000e+01 
94.073   7.60000000e+01 
94.037   6.80000000e+01 
94.001   6.00000000e+01 
93.965   5.70000000e+01 
93.929   6.90000000e+01 
93.893   6.00000000e+01 
93.857   4.10000000e+01 
93.821   5.20000000e+01 
93.785   6.00000000e+01 
93.749   5.30000000e+01 
93.713   5.10000000e+01 
93.677   5.10000000e+01 
93.641   5.20000000e+01 
93.605   5.60000000e+01 
93.570   5.60000000e+01 
93.534   5.10000000e+01 
93.498   4.50000000e+01 
93.462   4.60000000e+01 
93.426   5.00000000e+01 
93.390   6.40000000e+01 
93.354   5.30000000e+01 
93.318   5.00000000e+01 
93.282   4.90000000e+01 
93.246   5.50000000e+01 
93.210   4.80000000e+01 
93.174   5.40000000e+01 
93.138   5.60000000e+01 
93.102   6.40000000e+01 
93.066   5.90000000e+01 
93.030   7.60000000e+01 
92.995   7.00000000e+01 
92.959   6.20000000e+01 
92.923   7.90000000e+01 
92.887   6.80000000e+01 
92.851   7.80000000e+01 
92.815   6.70000000e+01 
92.779   8.30000000e+01 
92.743   9.20000000e+01 
92.707   9.60000000e+01 
92.671   9.10000000e+01 
92.635   1.10000000e+02 
92.599   1.12000000e+02 
92.563   1.01000000e+02 
92.527   1.06000000e+02 
92.491   1.14000000e+02 
92.455   1.32000000e+02 
92.420   1.33000000e+02 
92.384   1.37000000e+02 
92.348   1.48000000e+02 
92.312   1.70000000e+02 
92.276   1.60000000e+02 
92.240   1.84000000e+02 
92.204   1.96000000e+02 
92.168   2.05000000e+02 
92.132   2.30000000e+02 
92.096   2.27000000e+02 
92.060   2.23000000e+02 
92.024   2.60000000e+02 
91.988   2.98000000e+02 
91.952   2.68000000e+02 
91.916   2.78000000e+02 
91.880   3.21000000e+02 
91.845   3.48000000e+02 
91.809   3.32000000e+02 
91.773   3.36000000e+02 
91.737   3.24000000e+02 
91.701   3.79000000e+02 
91.665   3.71000000e+02 
91.629   3.65000000e+02 
91.593   3.79000000e+02 
91.557   3.74000000e+02 
91.521   3.55000000e+02 
91.485   3.63000000e+02 
91.449   3.53000000e+02 
91.413   3.34000000e+02 
91.377   3.00000000e+02 
91.341   2.81000000e+02 
91.305   2.54000000e+02 
91.270   2.12000000e+02 
91.234   2.12000000e+02 
91.198   1.84000000e+02 
91.162   1.78000000e+02 
91.126   1.35000000e+02 
91.090   1.32000000e+02 
91.054   1.17000000e+02 
91.018   1.10000000e+02 
90.982   1.06000000e+02 
90.946   9.30000000e+01 
90.910   7.40000000e+01 
90.874   7.10000000e+01 
90.838   6.00000000e+01 
90.802   6.40000000e+01 
90.766   6.70000000e+01 
90.730   5.40000000e+01 
90.695   6.90000000e+01 
90.659   5.10000000e+01 
90.623   5.60000000e+01 
90.587   3.90000000e+01 
90.551   4.20000000e+01 
90.515   4.90000000e+01 
90.479   5.60000000e+01 
90.443   4.00000000e+01 
90.407   4.20000000e+01 
90.371   4.60000000e+01 
90.335   3.10000000e+01 
90.299   3.90000000e+01 
90.263   4.00000000e+01 
90.227   2.70000000e+01 
90.191   4.10000000e+01 
90.155   3.80000000e+01 
90.120   3.00000000e+01 
90.084   2.00000000e+01 
90.048   3.40000000e+01 
90.012   2.60000000e+01 
89.976   3.60000000e+01 
89.940   3.50000000e+01 
89.904   3.50000000e+01 
89.868   3.70000000e+01 
89.832   3.30000000e+01 
89.796   2.80000000e+01 
89.760   2.30000000e+01 
89.724   2.90000000e+01 
89.688   3.10000000e+01 
89.652   2.80000000e+01 
89.616   2.50000000e+01 
89.580   2.70000000e+01 
89.545   2.50000000e+01 
89.509   2.40000000e+01 
89.473   3.10000000e+01 
89.437   2.60000000e+01 
89.401   2.80000000e+01 
89.365   3.20000000e+01 
89.329   1.90000000e+01 
89.293   2.20000000e+01 
89.257   2.50000000e+01 
89.221   2.70000000e+01 
89.185   2.60000000e+01 
89.149   2.40000000e+01 
89.113   2.40000000e+01 
89.077   2.00000000e+01 
89.041   2.80000000e+01 
89.005   4.20000000e+01 
88.970   3.20000000e+01 
88.934   2.40000000e+01 
88.898   1.80000000e+01 
88.862   3.00000000e+01 
88.826   2.50000000e+01 
88.790   1.80000000e+01 
88.754   2.70000000e+01 
88.718   2.00000000e+01 
88.682   2.30000000e+01 
88.646   3.20000000e+01 
88.610   2.30000000e+01 
88.574   3.20000000e+01 
88.538   2.30000000e+01 
88.502   2.60000000e+01 
88.466   2.90000000e+01 
88.430   2.10000000e+01 
88.395   2.60000000e+01 
88.359   2.40000000e+01 
88.323   1.90000000e+01 
88.287   2.60000000e+01 
88.251   2.60000000e+01 
88.215   2.60000000e+01 
88.179   2.10000000e+01 
88.143   2.80000000e+01 
88.107   3.10000000e+01 
88.071   2.70000000e+01 
88.035   2.30000000e+01 
87.999   2.10000000e+01 
87.963   2.30000000e+01 
87.927   1.90000000e+01 
87.891   2.20000000e+01 
87.855   2.10000000e+01 
87.820   2.20000000e+01 
87.784   2.10000000e+01 
87.748   2.10000000e+01 
87.712   2.40000000e+01 
87.676   1.90000000e+01 
87.640   2.90000000e+01 
87.604   1.90000000e+01 
87.568   2.20000000e+01 
87.532   2.50000000e+01 
87.496   2.20000000e+01 
87.460   2.00000000e+01 
87.424   2.00000000e+01 
87.388   3.10000000e+01 
87.352   1.90000000e+01 
87.316   2.90000000e+01 
87.280   1.70000000e+01 
87.245   2.20000000e+01 
87.209   2.80000000e+01 
87.173   2.30000000e+01 
87.137   2.70000000e+01 
87.101   1.90000000e+01 
87.065   2.70000000e+01 
87.029   2.10000000e+01 
86.993   2.20000000e+01 
86.957   2.30000000e+01 
86.921   2.00000000e+01 
86.885   1.50000000e+01 
86.849   1.30000000e+01 
86.813   2.10000000e+01 
86.777   3.20000000e+01 
86.741   3.20000000e+01 
86.705   1.80000000e+01 
86.670   2.60000000e+01 
86.634   2.80000000e+01 
86.598   1.80000000e+01 
86.562   2.00000000e+01 
86.526   2.00000000e+01 
86.490   2.00000000e+01 
86.454   2.40000000e+01 
86.418   1.80000000e+01 
86.382   2.20000000e+01 
86.346   2.20000000e+01 
86.310   1.70000000e+01 
86.274   1.90000000e+01 
86.238   2.30000000e+01 
86.202   1.70000000e+01 
86.166   2.30000000e+01 
86.130   2.00000000e+01 
86.095   2.60000000e+01 
86.059   2.50000000e+01 
86.023   1.60000000e+01 

