EXPERIMENT FILE
Version = 2

[ Experiment Parameters ]
Experiment Description= <none> 
Number_of_Regions_in_Experiment= 1 

Original_File_name= C:\alexesca\data\10122012_Au _4f_quick_58nuetral-28.xps 
Instrument= HP ESCA West
Date= 10-12-2012
Time=  19:02:32

[ Layer Parameters ]
Layer_Type= XPS

[ Region 1 Parameters ]
Region_Description = Au quick Dithered Scan Test        
BEcenter(eV) = 91.000000
BEwidth(eV) = 10.000000
BEstep(eV) = 0.035937
Dwell_Time(sec) = 0.500000
N_o_scans = 1  
N_o_Channels = 278  
Scan_mode = 0  (DITHERED)

[ L= 1 R= 1 ]
BEcenter= 91.000  
BEwidth= -9.955  
Excitation= 1486.600
Time_p_channel= 128.000 
Size= 278
95.977   9.90000000e+01 
95.941   1.07000000e+02 
95.905   9.40000000e+01 
95.870   1.08000000e+02 
95.834   1.17000000e+02 
95.798   1.30000000e+02 
95.762   1.37000000e+02 
95.726   1.28000000e+02 
95.690   1.27000000e+02 
95.654   1.58000000e+02 
95.618   1.57000000e+02 
95.582   1.48000000e+02 
95.546   1.41000000e+02 
95.510   1.83000000e+02 
95.474   1.85000000e+02 
95.438   1.85000000e+02 
95.402   1.80000000e+02 
95.366   1.97000000e+02 
95.330   1.98000000e+02 
95.295   2.42000000e+02 
95.259   2.33000000e+02 
95.223   2.20000000e+02 
95.187   2.61000000e+02 
95.151   2.51000000e+02 
95.115   2.52000000e+02 
95.079   2.50000000e+02 
95.043   3.01000000e+02 
95.007   2.55000000e+02 
94.971   2.60000000e+02 
94.935   2.93000000e+02 
94.899   2.57000000e+02 
94.863   2.83000000e+02 
94.827   2.18000000e+02 
94.791   2.28000000e+02 
94.755   2.19000000e+02 
94.720   2.13000000e+02 
94.684   1.88000000e+02 
94.648   1.49000000e+02 
94.612   1.58000000e+02 
94.576   1.30000000e+02 
94.540   1.61000000e+02 
94.504   1.04000000e+02 
94.468   1.37000000e+02 
94.432   1.05000000e+02 
94.396   8.40000000e+01 
94.360   8.70000000e+01 
94.324   7.80000000e+01 
94.288   7.90000000e+01 
94.252   7.90000000e+01 
94.216   7.30000000e+01 
94.180   6.80000000e+01 
94.145   4.70000000e+01 
94.109   6.50000000e+01 
94.073   6.30000000e+01 
94.037   5.80000000e+01 
94.001   5.00000000e+01 
93.965   5.60000000e+01 
93.929   5.80000000e+01 
93.893   4.70000000e+01 
93.857   4.20000000e+01 
93.821   4.90000000e+01 
93.785   5.70000000e+01 
93.749   5.50000000e+01 
93.713   5.70000000e+01 
93.677   4.30000000e+01 
93.641   5.90000000e+01 
93.605   5.20000000e+01 
93.570   5.00000000e+01 
93.534   4.20000000e+01 
93.498   4.60000000e+01 
93.462   5.30000000e+01 
93.426   4.30000000e+01 
93.390   5.00000000e+01 
93.354   4.90000000e+01 
93.318   4.60000000e+01 
93.282   5.80000000e+01 
93.246   4.90000000e+01 
93.210   5.30000000e+01 
93.174   5.50000000e+01 
93.138   5.80000000e+01 
93.102   5.70000000e+01 
93.066   6.80000000e+01 
93.030   5.30000000e+01 
92.995   5.40000000e+01 
92.959   5.60000000e+01 
92.923   6.50000000e+01 
92.887   6.30000000e+01 
92.851   7.60000000e+01 
92.815   4.20000000e+01 
92.779   5.80000000e+01 
92.743   5.80000000e+01 
92.707   7.10000000e+01 
92.671   7.20000000e+01 
92.635   7.10000000e+01 
92.599   7.40000000e+01 
92.563   6.80000000e+01 
92.527   7.40000000e+01 
92.491   6.30000000e+01 
92.455   6.90000000e+01 
92.420   8.40000000e+01 
92.384   1.11000000e+02 
92.348   1.03000000e+02 
92.312   1.05000000e+02 
92.276   1.17000000e+02 
92.240   1.02000000e+02 
92.204   1.27000000e+02 
92.168   1.44000000e+02 
92.132   1.37000000e+02 
92.096   1.42000000e+02 
92.060   1.39000000e+02 
92.024   1.59000000e+02 
91.988   1.45000000e+02 
91.952   1.77000000e+02 
91.916   1.65000000e+02 
91.880   2.04000000e+02 
91.845   2.07000000e+02 
91.809   1.96000000e+02 
91.773   2.23000000e+02 
91.737   2.54000000e+02 
91.701   2.55000000e+02 
91.665   2.80000000e+02 
91.629   2.43000000e+02 
91.593   2.71000000e+02 
91.557   2.98000000e+02 
91.521   2.82000000e+02 
91.485   3.43000000e+02 
91.449   3.09000000e+02 
91.413   3.13000000e+02 
91.377   3.01000000e+02 
91.341   3.34000000e+02 
91.305   3.13000000e+02 
91.270   3.80000000e+02 
91.234   3.18000000e+02 
91.198   3.31000000e+02 
91.162   2.91000000e+02 
91.126   2.83000000e+02 
91.090   2.46000000e+02 
91.054   2.21000000e+02 
91.018   2.10000000e+02 
90.982   2.01000000e+02 
90.946   1.65000000e+02 
90.910   1.39000000e+02 
90.874   1.53000000e+02 
90.838   1.39000000e+02 
90.802   1.19000000e+02 
90.766   1.06000000e+02 
90.730   9.80000000e+01 
90.695   8.90000000e+01 
90.659   7.40000000e+01 
90.623   7.20000000e+01 
90.587   6.30000000e+01 
90.551   5.50000000e+01 
90.515   7.00000000e+01 
90.479   4.70000000e+01 
90.443   6.10000000e+01 
90.407   4.20000000e+01 
90.371   5.90000000e+01 
90.335   4.10000000e+01 
90.299   4.10000000e+01 
90.263   3.70000000e+01 
90.227   4.20000000e+01 
90.191   3.40000000e+01 
90.155   2.90000000e+01 
90.120   4.40000000e+01 
90.084   2.90000000e+01 
90.048   3.40000000e+01 
90.012   2.80000000e+01 
89.976   3.30000000e+01 
89.940   3.40000000e+01 
89.904   2.90000000e+01 
89.868   2.50000000e+01 
89.832   3.40000000e+01 
89.796   2.90000000e+01 
89.760   3.30000000e+01 
89.724   2.10000000e+01 
89.688   2.90000000e+01 
89.652   3.20000000e+01 
89.616   3.30000000e+01 
89.580   2.00000000e+01 
89.545   2.00000000e+01 
89.509   3.50000000e+01 
89.473   3.40000000e+01 
89.437   3.50000000e+01 
89.401   2.90000000e+01 
89.365   2.50000000e+01 
89.329   2.00000000e+01 
89.293   3.60000000e+01 
89.257   2.90000000e+01 
89.221   2.30000000e+01 
89.185   2.20000000e+01 
89.149   2.20000000e+01 
89.113   2.00000000e+01 
89.077   3.80000000e+01 
89.041   2.40000000e+01 
89.005   2.60000000e+01 
88.970   2.90000000e+01 
88.934   2.20000000e+01 
88.898   3.20000000e+01 
88.862   1.50000000e+01 
88.826   3.20000000e+01 
88.790   2.40000000e+01 
88.754   2.90000000e+01 
88.718   2.50000000e+01 
88.682   1.70000000e+01 
88.646   2.20000000e+01 
88.610   1.80000000e+01 
88.574   2.50000000e+01 
88.538   2.60000000e+01 
88.502   2.60000000e+01 
88.466   2.30000000e+01 
88.430   2.70000000e+01 
88.395   1.90000000e+01 
88.359   1.90000000e+01 
88.323   2.80000000e+01 
88.287   1.80000000e+01 
88.251   2.80000000e+01 
88.215   2.90000000e+01 
88.179   2.10000000e+01 
88.143   1.20000000e+01 
88.107   1.80000000e+01 
88.071   2.90000000e+01 
88.035   2.80000000e+01 
87.999   2.20000000e+01 
87.963   2.70000000e+01 
87.927   1.80000000e+01 
87.891   3.10000000e+01 
87.855   1.80000000e+01 
87.820   1.90000000e+01 
87.784   2.40000000e+01 
87.748   2.40000000e+01 
87.712   2.20000000e+01 
87.676   2.10000000e+01 
87.640   1.70000000e+01 
87.604   2.40000000e+01 
87.568   1.80000000e+01 
87.532   2.80000000e+01 
87.496   2.20000000e+01 
87.460   3.00000000e+01 
87.424   2.30000000e+01 
87.388   2.40000000e+01 
87.352   1.80000000e+01 
87.316   2.10000000e+01 
87.280   1.90000000e+01 
87.245   1.50000000e+01 
87.209   3.00000000e+01 
87.173   2.90000000e+01 
87.137   2.80000000e+01 
87.101   2.50000000e+01 
87.065   1.70000000e+01 
87.029   2.70000000e+01 
86.993   2.10000000e+01 
86.957   2.40000000e+01 
86.921   2.70000000e+01 
86.885   2.40000000e+01 
86.849   2.70000000e+01 
86.813   3.00000000e+01 
86.777   2.20000000e+01 
86.741   2.00000000e+01 
86.705   1.40000000e+01 
86.670   2.80000000e+01 
86.634   1.80000000e+01 
86.598   1.40000000e+01 
86.562   1.70000000e+01 
86.526   2.00000000e+01 
86.490   1.90000000e+01 
86.454   2.70000000e+01 
86.418   2.30000000e+01 
86.382   2.70000000e+01 
86.346   2.30000000e+01 
86.310   2.40000000e+01 
86.274   1.90000000e+01 
86.238   3.10000000e+01 
86.202   2.60000000e+01 
86.166   2.20000000e+01 
86.130   2.70000000e+01 
86.095   2.60000000e+01 
86.059   2.00000000e+01 
86.023   1.40000000e+01 

