EXPERIMENT FILE
Version = 2

[ Experiment Parameters ]
Experiment Description= <none> 
Number_of_Regions_in_Experiment= 1 

Original_File_name= C:\alexesca\data\10122012_Au _4f_quick_58nuetral-8.xps 
Instrument= HP ESCA West
Date= 10-12-2012
Time=  19:22:01

[ Layer Parameters ]
Layer_Type= XPS

[ Region 1 Parameters ]
Region_Description = Au quick Dithered Scan Test        
BEcenter(eV) = 91.000000
BEwidth(eV) = 10.000000
BEstep(eV) = 0.035937
Dwell_Time(sec) = 0.500000
N_o_scans = 1  
N_o_Channels = 278  
Scan_mode = 0  (DITHERED)

[ L= 1 R= 1 ]
BEcenter= 91.000  
BEwidth= -9.955  
Excitation= 1486.600
Time_p_channel= 128.000 
Size= 278
95.977   2.89000000e+02 
95.941   2.88000000e+02 
95.905   2.96000000e+02 
95.870   2.94000000e+02 
95.834   3.54000000e+02 
95.798   3.56000000e+02 
95.762   3.61000000e+02 
95.726   3.80000000e+02 
95.690   3.86000000e+02 
95.654   3.98000000e+02 
95.618   4.30000000e+02 
95.582   4.15000000e+02 
95.546   4.42000000e+02 
95.510   4.55000000e+02 
95.474   4.85000000e+02 
95.438   5.09000000e+02 
95.402   4.61000000e+02 
95.366   5.11000000e+02 
95.330   4.92000000e+02 
95.295   5.79000000e+02 
95.259   6.01000000e+02 
95.223   6.06000000e+02 
95.187   6.17000000e+02 
95.151   6.28000000e+02 
95.115   6.88000000e+02 
95.079   6.81000000e+02 
95.043   6.73000000e+02 
95.007   6.88000000e+02 
94.971   6.73000000e+02 
94.935   6.57000000e+02 
94.899   6.59000000e+02 
94.863   6.81000000e+02 
94.827   6.96000000e+02 
94.791   6.31000000e+02 
94.755   6.24000000e+02 
94.720   5.76000000e+02 
94.684   5.98000000e+02 
94.648   4.87000000e+02 
94.612   5.22000000e+02 
94.576   5.14000000e+02 
94.540   4.36000000e+02 
94.504   3.74000000e+02 
94.468   3.42000000e+02 
94.432   3.60000000e+02 
94.396   3.27000000e+02 
94.360   3.15000000e+02 
94.324   2.81000000e+02 
94.288   2.60000000e+02 
94.252   2.08000000e+02 
94.216   2.33000000e+02 
94.180   1.88000000e+02 
94.145   2.35000000e+02 
94.109   1.94000000e+02 
94.073   1.79000000e+02 
94.037   1.62000000e+02 
94.001   1.52000000e+02 
93.965   1.61000000e+02 
93.929   1.55000000e+02 
93.893   1.39000000e+02 
93.857   1.43000000e+02 
93.821   1.42000000e+02 
93.785   1.28000000e+02 
93.749   1.59000000e+02 
93.713   1.21000000e+02 
93.677   1.59000000e+02 
93.641   1.28000000e+02 
93.605   1.35000000e+02 
93.570   1.65000000e+02 
93.534   1.13000000e+02 
93.498   1.42000000e+02 
93.462   1.40000000e+02 
93.426   1.06000000e+02 
93.390   1.27000000e+02 
93.354   1.30000000e+02 
93.318   1.39000000e+02 
93.282   1.31000000e+02 
93.246   1.19000000e+02 
93.210   1.62000000e+02 
93.174   1.57000000e+02 
93.138   1.31000000e+02 
93.102   1.74000000e+02 
93.066   1.49000000e+02 
93.030   1.61000000e+02 
92.995   1.57000000e+02 
92.959   1.64000000e+02 
92.923   1.78000000e+02 
92.887   1.92000000e+02 
92.851   1.73000000e+02 
92.815   2.02000000e+02 
92.779   1.90000000e+02 
92.743   1.99000000e+02 
92.707   2.09000000e+02 
92.671   2.14000000e+02 
92.635   2.41000000e+02 
92.599   2.34000000e+02 
92.563   2.28000000e+02 
92.527   2.67000000e+02 
92.491   2.30000000e+02 
92.455   2.58000000e+02 
92.420   2.74000000e+02 
92.384   3.10000000e+02 
92.348   2.92000000e+02 
92.312   3.03000000e+02 
92.276   3.10000000e+02 
92.240   3.51000000e+02 
92.204   3.69000000e+02 
92.168   3.45000000e+02 
92.132   3.89000000e+02 
92.096   4.06000000e+02 
92.060   3.93000000e+02 
92.024   3.93000000e+02 
91.988   4.69000000e+02 
91.952   4.76000000e+02 
91.916   4.86000000e+02 
91.880   4.95000000e+02 
91.845   4.79000000e+02 
91.809   5.66000000e+02 
91.773   6.22000000e+02 
91.737   5.99000000e+02 
91.701   6.67000000e+02 
91.665   6.32000000e+02 
91.629   6.88000000e+02 
91.593   7.14000000e+02 
91.557   7.00000000e+02 
91.521   6.77000000e+02 
91.485   7.87000000e+02 
91.449   7.36000000e+02 
91.413   7.82000000e+02 
91.377   7.91000000e+02 
91.341   8.07000000e+02 
91.305   8.07000000e+02 
91.270   8.26000000e+02 
91.234   8.01000000e+02 
91.198   8.21000000e+02 
91.162   8.10000000e+02 
91.126   7.24000000e+02 
91.090   7.07000000e+02 
91.054   6.87000000e+02 
91.018   6.78000000e+02 
90.982   6.27000000e+02 
90.946   5.59000000e+02 
90.910   5.42000000e+02 
90.874   5.17000000e+02 
90.838   4.78000000e+02 
90.802   3.93000000e+02 
90.766   3.65000000e+02 
90.730   3.02000000e+02 
90.695   2.95000000e+02 
90.659   2.74000000e+02 
90.623   2.54000000e+02 
90.587   2.43000000e+02 
90.551   2.00000000e+02 
90.515   1.74000000e+02 
90.479   1.59000000e+02 
90.443   1.48000000e+02 
90.407   1.68000000e+02 
90.371   1.42000000e+02 
90.335   1.29000000e+02 
90.299   1.05000000e+02 
90.263   1.16000000e+02 
90.227   1.13000000e+02 
90.191   1.16000000e+02 
90.155   8.60000000e+01 
90.120   1.00000000e+02 
90.084   8.70000000e+01 
90.048   9.90000000e+01 
90.012   8.70000000e+01 
89.976   8.20000000e+01 
89.940   8.00000000e+01 
89.904   8.20000000e+01 
89.868   8.80000000e+01 
89.832   7.50000000e+01 
89.796   6.30000000e+01 
89.760   7.10000000e+01 
89.724   6.60000000e+01 
89.688   8.40000000e+01 
89.652   6.90000000e+01 
89.616   7.90000000e+01 
89.580   7.00000000e+01 
89.545   7.70000000e+01 
89.509   5.80000000e+01 
89.473   5.40000000e+01 
89.437   6.50000000e+01 
89.401   7.30000000e+01 
89.365   6.10000000e+01 
89.329   7.30000000e+01 
89.293   3.40000000e+01 
89.257   7.20000000e+01 
89.221   4.30000000e+01 
89.185   6.50000000e+01 
89.149   6.20000000e+01 
89.113   6.00000000e+01 
89.077   6.80000000e+01 
89.041   6.10000000e+01 
89.005   5.70000000e+01 
88.970   5.10000000e+01 
88.934   4.50000000e+01 
88.898   4.90000000e+01 
88.862   6.60000000e+01 
88.826   6.20000000e+01 
88.790   6.00000000e+01 
88.754   5.60000000e+01 
88.718   4.90000000e+01 
88.682   5.50000000e+01 
88.646   5.30000000e+01 
88.610   6.90000000e+01 
88.574   4.60000000e+01 
88.538   5.40000000e+01 
88.502   7.00000000e+01 
88.466   5.40000000e+01 
88.430   5.80000000e+01 
88.395   5.00000000e+01 
88.359   4.90000000e+01 
88.323   7.20000000e+01 
88.287   4.90000000e+01 
88.251   5.90000000e+01 
88.215   4.70000000e+01 
88.179   5.20000000e+01 
88.143   5.30000000e+01 
88.107   5.20000000e+01 
88.071   3.70000000e+01 
88.035   5.70000000e+01 
87.999   4.30000000e+01 
87.963   4.30000000e+01 
87.927   4.70000000e+01 
87.891   4.80000000e+01 
87.855   4.60000000e+01 
87.820   6.30000000e+01 
87.784   5.10000000e+01 
87.748   5.60000000e+01 
87.712   6.10000000e+01 
87.676   4.60000000e+01 
87.640   5.10000000e+01 
87.604   5.90000000e+01 
87.568   6.40000000e+01 
87.532   5.00000000e+01 
87.496   4.10000000e+01 
87.460   6.00000000e+01 
87.424   6.30000000e+01 
87.388   5.60000000e+01 
87.352   6.40000000e+01 
87.316   4.80000000e+01 
87.280   5.60000000e+01 
87.245   5.50000000e+01 
87.209   5.00000000e+01 
87.173   6.70000000e+01 
87.137   5.00000000e+01 
87.101   4.80000000e+01 
87.065   5.60000000e+01 
87.029   5.50000000e+01 
86.993   6.50000000e+01 
86.957   5.40000000e+01 
86.921   4.00000000e+01 
86.885   6.10000000e+01 
86.849   5.90000000e+01 
86.813   5.20000000e+01 
86.777   5.60000000e+01 
86.741   5.60000000e+01 
86.705   3.90000000e+01 
86.670   3.80000000e+01 
86.634   4.60000000e+01 
86.598   5.70000000e+01 
86.562   6.30000000e+01 
86.526   6.00000000e+01 
86.490   6.00000000e+01 
86.454   4.50000000e+01 
86.418   4.40000000e+01 
86.382   5.70000000e+01 
86.346   5.70000000e+01 
86.310   5.10000000e+01 
86.274   4.30000000e+01 
86.238   4.70000000e+01 
86.202   5.20000000e+01 
86.166   4.10000000e+01 
86.130   5.20000000e+01 
86.095   5.10000000e+01 
86.059   5.10000000e+01 
86.023   5.90000000e+01 

