EXPERIMENT FILE
Version = 2

[ Experiment Parameters ]
Experiment Description= <none> 
Number_of_Regions_in_Experiment= 1 

Original_File_name= C:\alexesca\data\10172012_Au _4f_58nuetral-8.xps 
Instrument= HP ESCA West
Date= 10-17-2012
Time=  13:38:14

[ Layer Parameters ]
Layer_Type= XPS

[ Region 1 Parameters ]
Region_Description = Au 4f Dithered Scan                
BEcenter(eV) = 93.000000
BEwidth(eV) = 10.000000
BEstep(eV) = 0.035937
Dwell_Time(sec) = 1.000000
N_o_scans = 1  
N_o_Channels = 278  
Scan_mode = 0  (DITHERED)

[ L= 1 R= 1 ]
BEcenter= 93.000  
BEwidth= -9.955  
Excitation= 1486.600
Time_p_channel= 256.000 
Size= 278
97.977   2.84000000e+02 
97.941   2.81000000e+02 
97.905   2.97000000e+02 
97.870   3.10000000e+02 
97.834   2.58000000e+02 
97.798   2.60000000e+02 
97.762   2.69000000e+02 
97.726   2.88000000e+02 
97.690   2.94000000e+02 
97.654   2.89000000e+02 
97.618   3.26000000e+02 
97.582   2.77000000e+02 
97.546   2.87000000e+02 
97.510   3.01000000e+02 
97.474   2.88000000e+02 
97.438   3.05000000e+02 
97.402   2.93000000e+02 
97.366   2.77000000e+02 
97.330   3.02000000e+02 
97.295   3.16000000e+02 
97.259   3.23000000e+02 
97.223   3.17000000e+02 
97.187   2.99000000e+02 
97.151   2.93000000e+02 
97.115   3.15000000e+02 
97.079   3.52000000e+02 
97.043   3.08000000e+02 
97.007   2.96000000e+02 
96.971   3.21000000e+02 
96.935   3.14000000e+02 
96.899   3.31000000e+02 
96.863   3.39000000e+02 
96.827   3.29000000e+02 
96.791   3.58000000e+02 
96.755   3.04000000e+02 
96.720   3.40000000e+02 
96.684   3.43000000e+02 
96.648   3.91000000e+02 
96.612   3.99000000e+02 
96.576   4.10000000e+02 
96.540   4.00000000e+02 
96.504   4.10000000e+02 
96.468   4.04000000e+02 
96.432   4.18000000e+02 
96.396   4.17000000e+02 
96.360   4.60000000e+02 
96.324   4.39000000e+02 
96.288   4.67000000e+02 
96.252   4.44000000e+02 
96.216   4.40000000e+02 
96.180   4.69000000e+02 
96.145   5.04000000e+02 
96.109   4.92000000e+02 
96.073   5.39000000e+02 
96.037   5.48000000e+02 
96.001   6.14000000e+02 
95.965   5.67000000e+02 
95.929   6.34000000e+02 
95.893   6.47000000e+02 
95.857   6.90000000e+02 
95.821   6.84000000e+02 
95.785   7.49000000e+02 
95.749   7.96000000e+02 
95.713   7.51000000e+02 
95.677   8.04000000e+02 
95.641   8.25000000e+02 
95.605   8.80000000e+02 
95.570   8.97000000e+02 
95.534   8.85000000e+02 
95.498   9.35000000e+02 
95.462   9.77000000e+02 
95.426   1.01400000e+03 
95.390   1.04000000e+03 
95.354   1.06000000e+03 
95.318   1.12400000e+03 
95.282   1.15900000e+03 
95.246   1.22800000e+03 
95.210   1.20500000e+03 
95.174   1.35800000e+03 
95.138   1.30900000e+03 
95.102   1.38000000e+03 
95.066   1.43800000e+03 
95.030   1.46100000e+03 
94.995   1.54300000e+03 
94.959   1.44000000e+03 
94.923   1.51200000e+03 
94.887   1.53700000e+03 
94.851   1.53900000e+03 
94.815   1.55100000e+03 
94.779   1.58000000e+03 
94.743   1.46400000e+03 
94.707   1.43800000e+03 
94.671   1.52200000e+03 
94.635   1.38800000e+03 
94.599   1.36200000e+03 
94.563   1.33500000e+03 
94.527   1.25300000e+03 
94.491   1.13700000e+03 
94.455   1.14700000e+03 
94.420   1.02100000e+03 
94.384   9.14000000e+02 
94.348   8.66000000e+02 
94.312   7.62000000e+02 
94.276   7.58000000e+02 
94.240   6.44000000e+02 
94.204   6.43000000e+02 
94.168   5.79000000e+02 
94.132   5.50000000e+02 
94.096   5.26000000e+02 
94.060   4.84000000e+02 
94.024   4.41000000e+02 
93.988   4.25000000e+02 
93.952   3.98000000e+02 
93.916   4.18000000e+02 
93.880   3.81000000e+02 
93.845   3.89000000e+02 
93.809   3.49000000e+02 
93.773   3.30000000e+02 
93.737   3.27000000e+02 
93.701   3.22000000e+02 
93.665   3.35000000e+02 
93.629   3.17000000e+02 
93.593   3.22000000e+02 
93.557   3.03000000e+02 
93.521   3.00000000e+02 
93.485   2.99000000e+02 
93.449   3.33000000e+02 
93.413   3.06000000e+02 
93.377   3.40000000e+02 
93.341   3.03000000e+02 
93.305   2.76000000e+02 
93.270   3.27000000e+02 
93.234   2.96000000e+02 
93.198   3.29000000e+02 
93.162   3.68000000e+02 
93.126   3.30000000e+02 
93.090   3.28000000e+02 
93.054   3.76000000e+02 
93.018   3.78000000e+02 
92.982   3.51000000e+02 
92.946   3.84000000e+02 
92.910   3.98000000e+02 
92.874   3.75000000e+02 
92.838   3.83000000e+02 
92.802   4.13000000e+02 
92.766   3.69000000e+02 
92.730   4.25000000e+02 
92.695   4.49000000e+02 
92.659   4.77000000e+02 
92.623   4.70000000e+02 
92.587   4.80000000e+02 
92.551   4.88000000e+02 
92.515   4.63000000e+02 
92.479   5.09000000e+02 
92.443   5.49000000e+02 
92.407   6.05000000e+02 
92.371   5.53000000e+02 
92.335   6.62000000e+02 
92.299   6.23000000e+02 
92.263   6.42000000e+02 
92.227   6.93000000e+02 
92.191   6.77000000e+02 
92.155   7.58000000e+02 
92.120   7.69000000e+02 
92.084   8.05000000e+02 
92.048   8.06000000e+02 
92.012   8.00000000e+02 
91.976   8.86000000e+02 
91.940   9.13000000e+02 
91.904   9.66000000e+02 
91.868   9.50000000e+02 
91.832   1.09400000e+03 
91.796   1.08700000e+03 
91.760   1.13600000e+03 
91.724   1.28000000e+03 
91.688   1.25700000e+03 
91.652   1.30600000e+03 
91.616   1.31300000e+03 
91.580   1.40700000e+03 
91.545   1.50000000e+03 
91.509   1.50100000e+03 
91.473   1.56100000e+03 
91.437   1.66100000e+03 
91.401   1.67100000e+03 
91.365   1.72600000e+03 
91.329   1.76200000e+03 
91.293   1.69800000e+03 
91.257   1.81300000e+03 
91.221   1.82600000e+03 
91.185   1.89900000e+03 
91.149   1.85600000e+03 
91.113   1.88800000e+03 
91.077   1.89200000e+03 
91.041   1.79200000e+03 
91.005   1.76700000e+03 
90.970   1.72800000e+03 
90.934   1.66200000e+03 
90.898   1.56800000e+03 
90.862   1.47600000e+03 
90.826   1.35700000e+03 
90.790   1.28900000e+03 
90.754   1.18800000e+03 
90.718   1.06400000e+03 
90.682   9.79000000e+02 
90.646   9.01000000e+02 
90.610   8.10000000e+02 
90.574   7.16000000e+02 
90.538   6.50000000e+02 
90.502   5.71000000e+02 
90.466   5.32000000e+02 
90.430   4.58000000e+02 
90.395   4.70000000e+02 
90.359   3.93000000e+02 
90.323   3.86000000e+02 
90.287   3.29000000e+02 
90.251   3.19000000e+02 
90.215   2.88000000e+02 
90.179   2.92000000e+02 
90.143   2.50000000e+02 
90.107   2.56000000e+02 
90.071   2.43000000e+02 
90.035   2.33000000e+02 
89.999   2.27000000e+02 
89.963   2.18000000e+02 
89.927   2.08000000e+02 
89.891   2.05000000e+02 
89.855   1.97000000e+02 
89.820   1.96000000e+02 
89.784   1.86000000e+02 
89.748   1.96000000e+02 
89.712   1.73000000e+02 
89.676   2.00000000e+02 
89.640   1.54000000e+02 
89.604   1.64000000e+02 
89.568   1.58000000e+02 
89.532   1.63000000e+02 
89.496   1.68000000e+02 
89.460   1.55000000e+02 
89.424   1.61000000e+02 
89.388   1.72000000e+02 
89.352   1.54000000e+02 
89.316   1.41000000e+02 
89.280   1.49000000e+02 
89.245   1.50000000e+02 
89.209   1.38000000e+02 
89.173   1.39000000e+02 
89.137   1.41000000e+02 
89.101   1.54000000e+02 
89.065   1.31000000e+02 
89.029   1.52000000e+02 
88.993   1.40000000e+02 
88.957   1.36000000e+02 
88.921   1.34000000e+02 
88.885   1.56000000e+02 
88.849   1.21000000e+02 
88.813   1.29000000e+02 
88.777   1.42000000e+02 
88.741   1.51000000e+02 
88.705   1.28000000e+02 
88.670   1.26000000e+02 
88.634   1.24000000e+02 
88.598   1.20000000e+02 
88.562   1.21000000e+02 
88.526   1.16000000e+02 
88.490   1.38000000e+02 
88.454   1.18000000e+02 
88.418   1.38000000e+02 
88.382   1.38000000e+02 
88.346   1.10000000e+02 
88.310   1.42000000e+02 
88.274   1.07000000e+02 
88.238   1.01000000e+02 
88.202   1.44000000e+02 
88.166   1.39000000e+02 
88.130   1.34000000e+02 
88.095   1.50000000e+02 
88.059   1.26000000e+02 
88.023   1.30000000e+02 

