EXPERIMENT FILE
Version = 2

[ Experiment Parameters ]
Experiment Description= <none> 
Number_of_Regions_in_Experiment= 1 

Original_File_name= C:\alexesca\data\10182012_Au _4f_58nuetral-28_Mono220.xps 
Instrument= HP ESCA West
Date= 10-18-2012
Time=  16:43:48

[ Layer Parameters ]
Layer_Type= XPS

[ Region 1 Parameters ]
Region_Description = Au 4f Dithered Scan                
BEcenter(eV) = 93.000000
BEwidth(eV) = 10.000000
BEstep(eV) = 0.035937
Dwell_Time(sec) = 1.000000
N_o_scans = 1  
N_o_Channels = 278  
Scan_mode = 0  (DITHERED)

[ L= 1 R= 1 ]
BEcenter= 93.000  
BEwidth= -9.955  
Excitation= 1486.600
Time_p_channel= 256.000 
Size= 278
97.977   1.16000000e+02 
97.941   1.17000000e+02 
97.905   1.21000000e+02 
97.870   1.04000000e+02 
97.834   1.14000000e+02 
97.798   1.10000000e+02 
97.762   1.11000000e+02 
97.726   1.17000000e+02 
97.690   1.08000000e+02 
97.654   1.29000000e+02 
97.618   1.17000000e+02 
97.582   1.03000000e+02 
97.546   1.08000000e+02 
97.510   1.05000000e+02 
97.474   9.80000000e+01 
97.438   1.22000000e+02 
97.402   1.05000000e+02 
97.366   1.03000000e+02 
97.330   1.16000000e+02 
97.295   1.13000000e+02 
97.259   1.15000000e+02 
97.223   1.18000000e+02 
97.187   9.70000000e+01 
97.151   1.11000000e+02 
97.115   1.21000000e+02 
97.079   1.09000000e+02 
97.043   1.09000000e+02 
97.007   9.80000000e+01 
96.971   1.19000000e+02 
96.935   1.14000000e+02 
96.899   9.80000000e+01 
96.863   1.16000000e+02 
96.827   1.32000000e+02 
96.791   1.14000000e+02 
96.755   1.46000000e+02 
96.720   1.33000000e+02 
96.684   1.42000000e+02 
96.648   1.41000000e+02 
96.612   1.38000000e+02 
96.576   1.36000000e+02 
96.540   1.33000000e+02 
96.504   1.51000000e+02 
96.468   1.21000000e+02 
96.432   1.71000000e+02 
96.396   1.51000000e+02 
96.360   1.55000000e+02 
96.324   1.73000000e+02 
96.288   1.67000000e+02 
96.252   1.66000000e+02 
96.216   1.87000000e+02 
96.180   1.74000000e+02 
96.145   2.02000000e+02 
96.109   1.96000000e+02 
96.073   1.85000000e+02 
96.037   1.93000000e+02 
96.001   2.14000000e+02 
95.965   2.59000000e+02 
95.929   2.42000000e+02 
95.893   2.57000000e+02 
95.857   2.34000000e+02 
95.821   2.59000000e+02 
95.785   2.81000000e+02 
95.749   3.07000000e+02 
95.713   3.31000000e+02 
95.677   3.05000000e+02 
95.641   3.32000000e+02 
95.605   3.65000000e+02 
95.570   4.16000000e+02 
95.534   3.84000000e+02 
95.498   4.06000000e+02 
95.462   3.97000000e+02 
95.426   4.20000000e+02 
95.390   4.83000000e+02 
95.354   4.94000000e+02 
95.318   4.85000000e+02 
95.282   5.10000000e+02 
95.246   5.34000000e+02 
95.210   5.62000000e+02 
95.174   5.49000000e+02 
95.138   5.51000000e+02 
95.102   5.65000000e+02 
95.066   5.20000000e+02 
95.030   5.78000000e+02 
94.995   5.47000000e+02 
94.959   5.63000000e+02 
94.923   5.05000000e+02 
94.887   4.87000000e+02 
94.851   4.46000000e+02 
94.815   4.37000000e+02 
94.779   4.47000000e+02 
94.743   4.24000000e+02 
94.707   3.51000000e+02 
94.671   3.13000000e+02 
94.635   3.04000000e+02 
94.599   2.65000000e+02 
94.563   2.30000000e+02 
94.527   2.26000000e+02 
94.491   2.04000000e+02 
94.455   2.18000000e+02 
94.420   1.78000000e+02 
94.384   1.79000000e+02 
94.348   1.77000000e+02 
94.312   1.41000000e+02 
94.276   1.58000000e+02 
94.240   1.36000000e+02 
94.204   1.48000000e+02 
94.168   1.42000000e+02 
94.132   1.18000000e+02 
94.096   1.29000000e+02 
94.060   1.24000000e+02 
94.024   1.12000000e+02 
93.988   1.25000000e+02 
93.952   1.19000000e+02 
93.916   1.03000000e+02 
93.880   1.28000000e+02 
93.845   1.11000000e+02 
93.809   1.32000000e+02 
93.773   1.03000000e+02 
93.737   1.11000000e+02 
93.701   1.08000000e+02 
93.665   1.05000000e+02 
93.629   9.00000000e+01 
93.593   1.03000000e+02 
93.557   1.00000000e+02 
93.521   1.04000000e+02 
93.485   1.32000000e+02 
93.449   1.14000000e+02 
93.413   1.18000000e+02 
93.377   1.20000000e+02 
93.341   1.15000000e+02 
93.305   1.06000000e+02 
93.270   9.20000000e+01 
93.234   1.11000000e+02 
93.198   1.25000000e+02 
93.162   1.11000000e+02 
93.126   1.36000000e+02 
93.090   9.90000000e+01 
93.054   1.45000000e+02 
93.018   1.19000000e+02 
92.982   1.06000000e+02 
92.946   1.34000000e+02 
92.910   1.55000000e+02 
92.874   1.25000000e+02 
92.838   1.48000000e+02 
92.802   1.61000000e+02 
92.766   1.30000000e+02 
92.730   1.53000000e+02 
92.695   1.47000000e+02 
92.659   1.72000000e+02 
92.623   1.66000000e+02 
92.587   1.59000000e+02 
92.551   1.98000000e+02 
92.515   1.94000000e+02 
92.479   2.03000000e+02 
92.443   2.09000000e+02 
92.407   2.40000000e+02 
92.371   2.06000000e+02 
92.335   2.51000000e+02 
92.299   2.48000000e+02 
92.263   2.80000000e+02 
92.227   2.56000000e+02 
92.191   2.74000000e+02 
92.155   3.10000000e+02 
92.120   3.24000000e+02 
92.084   3.49000000e+02 
92.048   3.82000000e+02 
92.012   3.76000000e+02 
91.976   3.69000000e+02 
91.940   4.01000000e+02 
91.904   3.95000000e+02 
91.868   4.31000000e+02 
91.832   5.07000000e+02 
91.796   5.02000000e+02 
91.760   5.58000000e+02 
91.724   5.32000000e+02 
91.688   5.61000000e+02 
91.652   5.59000000e+02 
91.616   5.59000000e+02 
91.580   6.18000000e+02 
91.545   6.17000000e+02 
91.509   6.91000000e+02 
91.473   6.81000000e+02 
91.437   6.69000000e+02 
91.401   6.48000000e+02 
91.365   7.16000000e+02 
91.329   6.95000000e+02 
91.293   6.11000000e+02 
91.257   6.13000000e+02 
91.221   6.17000000e+02 
91.185   5.47000000e+02 
91.149   5.23000000e+02 
91.113   4.74000000e+02 
91.077   4.57000000e+02 
91.041   3.84000000e+02 
91.005   3.30000000e+02 
90.970   3.44000000e+02 
90.934   2.96000000e+02 
90.898   2.44000000e+02 
90.862   2.18000000e+02 
90.826   2.30000000e+02 
90.790   2.21000000e+02 
90.754   1.77000000e+02 
90.718   1.61000000e+02 
90.682   1.33000000e+02 
90.646   1.55000000e+02 
90.610   1.40000000e+02 
90.574   1.15000000e+02 
90.538   1.25000000e+02 
90.502   9.30000000e+01 
90.466   8.90000000e+01 
90.430   1.02000000e+02 
90.395   8.80000000e+01 
90.359   8.40000000e+01 
90.323   9.00000000e+01 
90.287   9.60000000e+01 
90.251   7.10000000e+01 
90.215   8.80000000e+01 
90.179   6.20000000e+01 
90.143   6.40000000e+01 
90.107   6.40000000e+01 
90.071   6.90000000e+01 
90.035   6.60000000e+01 
89.999   6.00000000e+01 
89.963   6.90000000e+01 
89.927   7.20000000e+01 
89.891   6.80000000e+01 
89.855   5.40000000e+01 
89.820   7.70000000e+01 
89.784   5.10000000e+01 
89.748   5.70000000e+01 
89.712   7.30000000e+01 
89.676   6.50000000e+01 
89.640   6.50000000e+01 
89.604   6.50000000e+01 
89.568   6.20000000e+01 
89.532   5.50000000e+01 
89.496   4.80000000e+01 
89.460   4.20000000e+01 
89.424   4.60000000e+01 
89.388   4.80000000e+01 
89.352   5.30000000e+01 
89.316   5.90000000e+01 
89.280   5.40000000e+01 
89.245   4.40000000e+01 
89.209   4.40000000e+01 
89.173   5.80000000e+01 
89.137   5.20000000e+01 
89.101   4.90000000e+01 
89.065   6.30000000e+01 
89.029   3.80000000e+01 
88.993   5.40000000e+01 
88.957   4.00000000e+01 
88.921   5.10000000e+01 
88.885   4.60000000e+01 
88.849   6.30000000e+01 
88.813   4.50000000e+01 
88.777   5.00000000e+01 
88.741   5.90000000e+01 
88.705   4.10000000e+01 
88.670   3.50000000e+01 
88.634   4.60000000e+01 
88.598   4.80000000e+01 
88.562   5.20000000e+01 
88.526   5.00000000e+01 
88.490   6.20000000e+01 
88.454   4.80000000e+01 
88.418   4.70000000e+01 
88.382   6.20000000e+01 
88.346   4.10000000e+01 
88.310   5.20000000e+01 
88.274   5.50000000e+01 
88.238   4.00000000e+01 
88.202   4.80000000e+01 
88.166   4.20000000e+01 
88.130   4.50000000e+01 
88.095   4.90000000e+01 
88.059   4.30000000e+01 
88.023   4.60000000e+01 

