EXPERIMENT FILE
Version = 2

[ Experiment Parameters ]
Experiment Description= <none> 
Number_of_Regions_in_Experiment= 1 

Original_File_name= C:\alexesca\data\10192012_Au _4f_59nuetral-39_Mono335.xps 
Instrument= HP ESCA West
Date= 10-19-2012
Time=  16:07:57

[ Layer Parameters ]
Layer_Type= XPS

[ Region 1 Parameters ]
Region_Description = Au 4f Dithered Scan                
BEcenter(eV) = 93.000000
BEwidth(eV) = 10.000000
BEstep(eV) = 0.035937
Dwell_Time(sec) = 1.000000
N_o_scans = 1  
N_o_Channels = 278  
Scan_mode = 0  (DITHERED)

[ L= 1 R= 1 ]
BEcenter= 93.000  
BEwidth= -9.955  
Excitation= 1486.600
Time_p_channel= 256.000 
Size= 278
97.977   5.50000000e+01 
97.941   5.30000000e+01 
97.905   6.30000000e+01 
97.870   5.40000000e+01 
97.834   5.20000000e+01 
97.798   5.00000000e+01 
97.762   5.70000000e+01 
97.726   4.00000000e+01 
97.690   5.40000000e+01 
97.654   5.50000000e+01 
97.618   5.80000000e+01 
97.582   5.00000000e+01 
97.546   4.50000000e+01 
97.510   5.00000000e+01 
97.474   4.60000000e+01 
97.438   4.70000000e+01 
97.402   5.00000000e+01 
97.366   4.80000000e+01 
97.330   4.90000000e+01 
97.295   5.30000000e+01 
97.259   5.20000000e+01 
97.223   5.90000000e+01 
97.187   5.10000000e+01 
97.151   4.80000000e+01 
97.115   5.30000000e+01 
97.079   5.60000000e+01 
97.043   6.40000000e+01 
97.007   6.90000000e+01 
96.971   6.20000000e+01 
96.935   6.10000000e+01 
96.899   5.60000000e+01 
96.863   6.10000000e+01 
96.827   5.20000000e+01 
96.791   5.20000000e+01 
96.755   6.20000000e+01 
96.720   6.40000000e+01 
96.684   6.80000000e+01 
96.648   5.90000000e+01 
96.612   7.30000000e+01 
96.576   6.20000000e+01 
96.540   7.80000000e+01 
96.504   6.80000000e+01 
96.468   7.90000000e+01 
96.432   8.10000000e+01 
96.396   9.50000000e+01 
96.360   7.30000000e+01 
96.324   8.30000000e+01 
96.288   8.60000000e+01 
96.252   8.90000000e+01 
96.216   9.70000000e+01 
96.180   9.80000000e+01 
96.145   1.00000000e+02 
96.109   9.80000000e+01 
96.073   1.09000000e+02 
96.037   1.14000000e+02 
96.001   1.35000000e+02 
95.965   1.34000000e+02 
95.929   1.31000000e+02 
95.893   1.59000000e+02 
95.857   1.36000000e+02 
95.821   1.45000000e+02 
95.785   1.72000000e+02 
95.749   1.75000000e+02 
95.713   1.82000000e+02 
95.677   1.95000000e+02 
95.641   1.73000000e+02 
95.605   1.96000000e+02 
95.570   1.83000000e+02 
95.534   2.01000000e+02 
95.498   2.15000000e+02 
95.462   2.37000000e+02 
95.426   2.29000000e+02 
95.390   2.25000000e+02 
95.354   2.28000000e+02 
95.318   2.37000000e+02 
95.282   2.56000000e+02 
95.246   2.49000000e+02 
95.210   2.56000000e+02 
95.174   2.63000000e+02 
95.138   2.55000000e+02 
95.102   2.27000000e+02 
95.066   2.06000000e+02 
95.030   2.08000000e+02 
94.995   2.00000000e+02 
94.959   1.80000000e+02 
94.923   2.11000000e+02 
94.887   1.91000000e+02 
94.851   1.52000000e+02 
94.815   1.43000000e+02 
94.779   1.55000000e+02 
94.743   1.24000000e+02 
94.707   1.28000000e+02 
94.671   1.29000000e+02 
94.635   1.23000000e+02 
94.599   1.10000000e+02 
94.563   9.10000000e+01 
94.527   9.80000000e+01 
94.491   8.40000000e+01 
94.455   8.50000000e+01 
94.420   7.90000000e+01 
94.384   6.50000000e+01 
94.348   6.20000000e+01 
94.312   7.80000000e+01 
94.276   6.50000000e+01 
94.240   7.00000000e+01 
94.204   5.30000000e+01 
94.168   5.00000000e+01 
94.132   6.40000000e+01 
94.096   6.10000000e+01 
94.060   6.50000000e+01 
94.024   5.10000000e+01 
93.988   5.20000000e+01 
93.952   5.70000000e+01 
93.916   5.70000000e+01 
93.880   4.60000000e+01 
93.845   4.20000000e+01 
93.809   5.20000000e+01 
93.773   3.90000000e+01 
93.737   5.70000000e+01 
93.701   5.20000000e+01 
93.665   3.90000000e+01 
93.629   5.30000000e+01 
93.593   4.70000000e+01 
93.557   5.20000000e+01 
93.521   5.50000000e+01 
93.485   6.80000000e+01 
93.449   3.90000000e+01 
93.413   4.50000000e+01 
93.377   4.90000000e+01 
93.341   4.40000000e+01 
93.305   5.50000000e+01 
93.270   5.80000000e+01 
93.234   4.90000000e+01 
93.198   5.70000000e+01 
93.162   5.10000000e+01 
93.126   4.40000000e+01 
93.090   4.80000000e+01 
93.054   5.90000000e+01 
93.018   7.50000000e+01 
92.982   6.70000000e+01 
92.946   6.00000000e+01 
92.910   6.40000000e+01 
92.874   8.30000000e+01 
92.838   7.30000000e+01 
92.802   8.30000000e+01 
92.766   6.70000000e+01 
92.730   6.70000000e+01 
92.695   9.10000000e+01 
92.659   8.00000000e+01 
92.623   8.90000000e+01 
92.587   9.90000000e+01 
92.551   1.05000000e+02 
92.515   1.11000000e+02 
92.479   1.22000000e+02 
92.443   1.24000000e+02 
92.407   1.12000000e+02 
92.371   1.20000000e+02 
92.335   1.25000000e+02 
92.299   1.45000000e+02 
92.263   1.45000000e+02 
92.227   1.47000000e+02 
92.191   1.63000000e+02 
92.155   1.71000000e+02 
92.120   1.82000000e+02 
92.084   2.07000000e+02 
92.048   1.76000000e+02 
92.012   1.97000000e+02 
91.976   2.15000000e+02 
91.940   2.75000000e+02 
91.904   2.67000000e+02 
91.868   2.31000000e+02 
91.832   2.69000000e+02 
91.796   2.46000000e+02 
91.760   2.50000000e+02 
91.724   2.86000000e+02 
91.688   2.56000000e+02 
91.652   2.79000000e+02 
91.616   2.85000000e+02 
91.580   3.13000000e+02 
91.545   3.00000000e+02 
91.509   2.85000000e+02 
91.473   2.89000000e+02 
91.437   3.20000000e+02 
91.401   2.54000000e+02 
91.365   2.61000000e+02 
91.329   2.42000000e+02 
91.293   2.38000000e+02 
91.257   2.03000000e+02 
91.221   2.08000000e+02 
91.185   1.78000000e+02 
91.149   1.78000000e+02 
91.113   1.59000000e+02 
91.077   1.52000000e+02 
91.041   1.24000000e+02 
91.005   1.25000000e+02 
90.970   1.11000000e+02 
90.934   8.50000000e+01 
90.898   1.02000000e+02 
90.862   9.10000000e+01 
90.826   7.50000000e+01 
90.790   7.10000000e+01 
90.754   7.00000000e+01 
90.718   7.30000000e+01 
90.682   6.00000000e+01 
90.646   6.70000000e+01 
90.610   5.40000000e+01 
90.574   6.10000000e+01 
90.538   4.10000000e+01 
90.502   3.40000000e+01 
90.466   4.90000000e+01 
90.430   4.70000000e+01 
90.395   3.90000000e+01 
90.359   4.80000000e+01 
90.323   2.90000000e+01 
90.287   3.80000000e+01 
90.251   4.60000000e+01 
90.215   4.40000000e+01 
90.179   2.80000000e+01 
90.143   4.50000000e+01 
90.107   2.90000000e+01 
90.071   3.50000000e+01 
90.035   2.70000000e+01 
89.999   4.00000000e+01 
89.963   2.90000000e+01 
89.927   4.00000000e+01 
89.891   3.30000000e+01 
89.855   2.80000000e+01 
89.820   3.30000000e+01 
89.784   3.10000000e+01 
89.748   2.90000000e+01 
89.712   3.50000000e+01 
89.676   4.10000000e+01 
89.640   3.30000000e+01 
89.604   2.60000000e+01 
89.568   3.40000000e+01 
89.532   2.80000000e+01 
89.496   2.90000000e+01 
89.460   2.60000000e+01 
89.424   3.10000000e+01 
89.388   1.70000000e+01 
89.352   2.60000000e+01 
89.316   2.70000000e+01 
89.280   2.50000000e+01 
89.245   3.20000000e+01 
89.209   3.60000000e+01 
89.173   2.40000000e+01 
89.137   2.20000000e+01 
89.101   2.70000000e+01 
89.065   2.80000000e+01 
89.029   2.90000000e+01 
88.993   2.00000000e+01 
88.957   2.60000000e+01 
88.921   2.20000000e+01 
88.885   3.00000000e+01 
88.849   3.30000000e+01 
88.813   2.20000000e+01 
88.777   2.30000000e+01 
88.741   2.30000000e+01 
88.705   2.90000000e+01 
88.670   2.30000000e+01 
88.634   2.60000000e+01 
88.598   2.50000000e+01 
88.562   2.40000000e+01 
88.526   2.50000000e+01 
88.490   2.10000000e+01 
88.454   2.00000000e+01 
88.418   2.10000000e+01 
88.382   3.20000000e+01 
88.346   2.40000000e+01 
88.310   2.30000000e+01 
88.274   3.10000000e+01 
88.238   2.70000000e+01 
88.202   2.00000000e+01 
88.166   2.40000000e+01 
88.130   2.40000000e+01 
88.095   2.80000000e+01 
88.059   1.90000000e+01 
88.023   2.50000000e+01 

