EXPERIMENT FILE
Version = 2

[ Experiment Parameters ]
Experiment Description= <none> 
Number_of_Regions_in_Experiment= 1 

Original_File_name= C:\alexesca\data\10192012_Au _4f_59nuetral-39_Mono220.xps 
Instrument= HP ESCA West
Date= 10-19-2012
Time=  11:56:24

[ Layer Parameters ]
Layer_Type= XPS

[ Region 1 Parameters ]
Region_Description = Au 4f Dithered Scan                
BEcenter(eV) = 93.000000
BEwidth(eV) = 10.000000
BEstep(eV) = 0.035937
Dwell_Time(sec) = 1.000000
N_o_scans = 1  
N_o_Channels = 278  
Scan_mode = 0  (DITHERED)

[ L= 1 R= 1 ]
BEcenter= 93.000  
BEwidth= -9.955  
Excitation= 1486.600
Time_p_channel= 256.000 
Size= 278
97.977   6.30000000e+01 
97.941   6.90000000e+01 
97.905   6.90000000e+01 
97.870   7.30000000e+01 
97.834   7.60000000e+01 
97.798   5.80000000e+01 
97.762   5.70000000e+01 
97.726   6.10000000e+01 
97.690   7.20000000e+01 
97.654   7.10000000e+01 
97.618   5.60000000e+01 
97.582   6.10000000e+01 
97.546   5.60000000e+01 
97.510   6.00000000e+01 
97.474   5.70000000e+01 
97.438   6.30000000e+01 
97.402   6.90000000e+01 
97.366   6.60000000e+01 
97.330   4.80000000e+01 
97.295   6.40000000e+01 
97.259   6.50000000e+01 
97.223   8.00000000e+01 
97.187   5.40000000e+01 
97.151   5.80000000e+01 
97.115   7.10000000e+01 
97.079   6.50000000e+01 
97.043   6.70000000e+01 
97.007   5.50000000e+01 
96.971   7.60000000e+01 
96.935   7.30000000e+01 
96.899   7.30000000e+01 
96.863   7.40000000e+01 
96.827   7.10000000e+01 
96.791   6.90000000e+01 
96.755   5.70000000e+01 
96.720   6.30000000e+01 
96.684   6.20000000e+01 
96.648   7.00000000e+01 
96.612   7.90000000e+01 
96.576   8.20000000e+01 
96.540   9.40000000e+01 
96.504   8.70000000e+01 
96.468   7.90000000e+01 
96.432   8.10000000e+01 
96.396   9.90000000e+01 
96.360   8.60000000e+01 
96.324   7.10000000e+01 
96.288   8.40000000e+01 
96.252   9.40000000e+01 
96.216   1.19000000e+02 
96.180   9.90000000e+01 
96.145   1.07000000e+02 
96.109   1.12000000e+02 
96.073   1.26000000e+02 
96.037   1.23000000e+02 
96.001   1.29000000e+02 
95.965   1.17000000e+02 
95.929   1.39000000e+02 
95.893   1.38000000e+02 
95.857   1.66000000e+02 
95.821   1.61000000e+02 
95.785   1.68000000e+02 
95.749   1.80000000e+02 
95.713   1.83000000e+02 
95.677   1.83000000e+02 
95.641   1.82000000e+02 
95.605   1.88000000e+02 
95.570   2.42000000e+02 
95.534   2.12000000e+02 
95.498   2.25000000e+02 
95.462   2.43000000e+02 
95.426   2.58000000e+02 
95.390   2.68000000e+02 
95.354   2.32000000e+02 
95.318   2.58000000e+02 
95.282   2.92000000e+02 
95.246   3.11000000e+02 
95.210   2.92000000e+02 
95.174   3.02000000e+02 
95.138   3.12000000e+02 
95.102   3.20000000e+02 
95.066   3.05000000e+02 
95.030   3.22000000e+02 
94.995   3.08000000e+02 
94.959   2.79000000e+02 
94.923   2.91000000e+02 
94.887   2.52000000e+02 
94.851   2.50000000e+02 
94.815   2.11000000e+02 
94.779   2.09000000e+02 
94.743   2.00000000e+02 
94.707   1.71000000e+02 
94.671   1.56000000e+02 
94.635   1.70000000e+02 
94.599   1.24000000e+02 
94.563   1.21000000e+02 
94.527   1.38000000e+02 
94.491   1.08000000e+02 
94.455   1.03000000e+02 
94.420   1.12000000e+02 
94.384   9.80000000e+01 
94.348   9.90000000e+01 
94.312   8.60000000e+01 
94.276   8.90000000e+01 
94.240   9.50000000e+01 
94.204   7.40000000e+01 
94.168   7.40000000e+01 
94.132   8.20000000e+01 
94.096   7.60000000e+01 
94.060   6.40000000e+01 
94.024   7.30000000e+01 
93.988   6.00000000e+01 
93.952   7.10000000e+01 
93.916   5.80000000e+01 
93.880   6.70000000e+01 
93.845   6.30000000e+01 
93.809   5.90000000e+01 
93.773   5.80000000e+01 
93.737   5.30000000e+01 
93.701   5.40000000e+01 
93.665   6.30000000e+01 
93.629   5.90000000e+01 
93.593   5.10000000e+01 
93.557   6.90000000e+01 
93.521   6.30000000e+01 
93.485   5.80000000e+01 
93.449   5.80000000e+01 
93.413   6.00000000e+01 
93.377   6.30000000e+01 
93.341   6.30000000e+01 
93.305   5.40000000e+01 
93.270   4.60000000e+01 
93.234   5.90000000e+01 
93.198   5.80000000e+01 
93.162   6.20000000e+01 
93.126   5.50000000e+01 
93.090   6.60000000e+01 
93.054   5.60000000e+01 
93.018   7.20000000e+01 
92.982   5.80000000e+01 
92.946   5.50000000e+01 
92.910   7.10000000e+01 
92.874   7.30000000e+01 
92.838   8.90000000e+01 
92.802   7.10000000e+01 
92.766   7.80000000e+01 
92.730   8.70000000e+01 
92.695   7.70000000e+01 
92.659   8.60000000e+01 
92.623   9.70000000e+01 
92.587   8.40000000e+01 
92.551   1.10000000e+02 
92.515   1.01000000e+02 
92.479   1.15000000e+02 
92.443   1.03000000e+02 
92.407   1.01000000e+02 
92.371   9.80000000e+01 
92.335   1.45000000e+02 
92.299   1.47000000e+02 
92.263   1.52000000e+02 
92.227   1.49000000e+02 
92.191   1.69000000e+02 
92.155   1.98000000e+02 
92.120   1.82000000e+02 
92.084   1.79000000e+02 
92.048   1.89000000e+02 
92.012   2.03000000e+02 
91.976   1.96000000e+02 
91.940   2.52000000e+02 
91.904   2.47000000e+02 
91.868   2.40000000e+02 
91.832   2.52000000e+02 
91.796   2.69000000e+02 
91.760   3.03000000e+02 
91.724   3.09000000e+02 
91.688   3.26000000e+02 
91.652   3.42000000e+02 
91.616   3.47000000e+02 
91.580   3.28000000e+02 
91.545   3.83000000e+02 
91.509   3.69000000e+02 
91.473   3.77000000e+02 
91.437   3.47000000e+02 
91.401   3.62000000e+02 
91.365   3.56000000e+02 
91.329   3.56000000e+02 
91.293   3.18000000e+02 
91.257   3.16000000e+02 
91.221   3.16000000e+02 
91.185   2.81000000e+02 
91.149   2.44000000e+02 
91.113   2.15000000e+02 
91.077   2.19000000e+02 
91.041   2.23000000e+02 
91.005   1.76000000e+02 
90.970   1.60000000e+02 
90.934   1.41000000e+02 
90.898   1.31000000e+02 
90.862   1.23000000e+02 
90.826   1.16000000e+02 
90.790   9.90000000e+01 
90.754   1.04000000e+02 
90.718   9.40000000e+01 
90.682   8.20000000e+01 
90.646   8.00000000e+01 
90.610   7.70000000e+01 
90.574   6.40000000e+01 
90.538   6.90000000e+01 
90.502   6.00000000e+01 
90.466   5.90000000e+01 
90.430   6.10000000e+01 
90.395   5.50000000e+01 
90.359   6.10000000e+01 
90.323   4.90000000e+01 
90.287   5.60000000e+01 
90.251   4.50000000e+01 
90.215   4.40000000e+01 
90.179   4.60000000e+01 
90.143   4.60000000e+01 
90.107   4.30000000e+01 
90.071   4.60000000e+01 
90.035   3.40000000e+01 
89.999   4.50000000e+01 
89.963   2.80000000e+01 
89.927   4.00000000e+01 
89.891   4.70000000e+01 
89.855   3.80000000e+01 
89.820   3.60000000e+01 
89.784   4.50000000e+01 
89.748   3.50000000e+01 
89.712   4.40000000e+01 
89.676   4.10000000e+01 
89.640   3.00000000e+01 
89.604   3.40000000e+01 
89.568   3.60000000e+01 
89.532   3.60000000e+01 
89.496   3.40000000e+01 
89.460   3.20000000e+01 
89.424   3.80000000e+01 
89.388   2.90000000e+01 
89.352   3.80000000e+01 
89.316   3.00000000e+01 
89.280   3.10000000e+01 
89.245   3.70000000e+01 
89.209   3.60000000e+01 
89.173   2.70000000e+01 
89.137   4.10000000e+01 
89.101   2.60000000e+01 
89.065   2.90000000e+01 
89.029   2.40000000e+01 
88.993   4.20000000e+01 
88.957   3.10000000e+01 
88.921   4.00000000e+01 
88.885   3.40000000e+01 
88.849   4.00000000e+01 
88.813   2.40000000e+01 
88.777   2.60000000e+01 
88.741   3.50000000e+01 
88.705   3.30000000e+01 
88.670   2.80000000e+01 
88.634   3.20000000e+01 
88.598   2.60000000e+01 
88.562   3.10000000e+01 
88.526   2.90000000e+01 
88.490   4.30000000e+01 
88.454   4.20000000e+01 
88.418   3.10000000e+01 
88.382   2.50000000e+01 
88.346   2.70000000e+01 
88.310   2.70000000e+01 
88.274   3.60000000e+01 
88.238   2.70000000e+01 
88.202   2.90000000e+01 
88.166   3.00000000e+01 
88.130   2.90000000e+01 
88.095   2.10000000e+01 
88.059   3.00000000e+01 
88.023   3.00000000e+01 

