EXPERIMENT FILE
Version = 2

[ Experiment Parameters ]
Experiment Description= <none> 
Number_of_Regions_in_Experiment= 1 

Original_File_name= C:\alexesca\data\10192012_Au _4f_59nuetral-29_Mono205.xps 
Instrument= HP ESCA West
Date= 10-19-2012
Time=  14:50:30

[ Layer Parameters ]
Layer_Type= XPS

[ Region 1 Parameters ]
Region_Description = Au 4f Dithered Scan                
BEcenter(eV) = 93.000000
BEwidth(eV) = 10.000000
BEstep(eV) = 0.035937
Dwell_Time(sec) = 1.000000
N_o_scans = 1  
N_o_Channels = 278  
Scan_mode = 0  (DITHERED)

[ L= 1 R= 1 ]
BEcenter= 93.000  
BEwidth= -9.955  
Excitation= 1486.600
Time_p_channel= 256.000 
Size= 278
97.977   1.07000000e+02 
97.941   1.16000000e+02 
97.905   1.16000000e+02 
97.870   9.80000000e+01 
97.834   1.08000000e+02 
97.798   1.03000000e+02 
97.762   1.09000000e+02 
97.726   1.07000000e+02 
97.690   9.20000000e+01 
97.654   1.00000000e+02 
97.618   1.06000000e+02 
97.582   9.40000000e+01 
97.546   1.03000000e+02 
97.510   1.07000000e+02 
97.474   1.05000000e+02 
97.438   1.08000000e+02 
97.402   1.09000000e+02 
97.366   1.01000000e+02 
97.330   1.30000000e+02 
97.295   1.12000000e+02 
97.259   9.60000000e+01 
97.223   1.19000000e+02 
97.187   1.11000000e+02 
97.151   1.02000000e+02 
97.115   1.00000000e+02 
97.079   9.60000000e+01 
97.043   9.80000000e+01 
97.007   1.22000000e+02 
96.971   1.12000000e+02 
96.935   1.18000000e+02 
96.899   1.15000000e+02 
96.863   1.29000000e+02 
96.827   1.09000000e+02 
96.791   1.08000000e+02 
96.755   1.20000000e+02 
96.720   1.03000000e+02 
96.684   1.32000000e+02 
96.648   1.25000000e+02 
96.612   1.22000000e+02 
96.576   1.29000000e+02 
96.540   1.28000000e+02 
96.504   1.31000000e+02 
96.468   1.35000000e+02 
96.432   1.25000000e+02 
96.396   1.22000000e+02 
96.360   1.32000000e+02 
96.324   1.38000000e+02 
96.288   1.48000000e+02 
96.252   1.42000000e+02 
96.216   1.48000000e+02 
96.180   1.63000000e+02 
96.145   1.69000000e+02 
96.109   1.51000000e+02 
96.073   1.90000000e+02 
96.037   1.79000000e+02 
96.001   1.90000000e+02 
95.965   2.04000000e+02 
95.929   2.03000000e+02 
95.893   2.31000000e+02 
95.857   2.18000000e+02 
95.821   2.23000000e+02 
95.785   2.28000000e+02 
95.749   2.59000000e+02 
95.713   2.54000000e+02 
95.677   2.55000000e+02 
95.641   2.46000000e+02 
95.605   3.03000000e+02 
95.570   3.09000000e+02 
95.534   3.30000000e+02 
95.498   3.86000000e+02 
95.462   3.97000000e+02 
95.426   3.82000000e+02 
95.390   4.18000000e+02 
95.354   4.21000000e+02 
95.318   4.81000000e+02 
95.282   4.84000000e+02 
95.246   4.66000000e+02 
95.210   4.68000000e+02 
95.174   5.20000000e+02 
95.138   5.42000000e+02 
95.102   5.71000000e+02 
95.066   5.81000000e+02 
95.030   5.49000000e+02 
94.995   5.76000000e+02 
94.959   6.18000000e+02 
94.923   5.94000000e+02 
94.887   5.81000000e+02 
94.851   5.24000000e+02 
94.815   4.87000000e+02 
94.779   4.82000000e+02 
94.743   4.52000000e+02 
94.707   4.50000000e+02 
94.671   4.18000000e+02 
94.635   3.41000000e+02 
94.599   3.08000000e+02 
94.563   3.17000000e+02 
94.527   2.62000000e+02 
94.491   2.40000000e+02 
94.455   2.48000000e+02 
94.420   2.12000000e+02 
94.384   1.99000000e+02 
94.348   1.88000000e+02 
94.312   1.45000000e+02 
94.276   1.68000000e+02 
94.240   1.33000000e+02 
94.204   1.59000000e+02 
94.168   1.49000000e+02 
94.132   1.52000000e+02 
94.096   1.21000000e+02 
94.060   1.39000000e+02 
94.024   1.25000000e+02 
93.988   1.31000000e+02 
93.952   1.23000000e+02 
93.916   1.06000000e+02 
93.880   1.23000000e+02 
93.845   1.40000000e+02 
93.809   1.11000000e+02 
93.773   1.18000000e+02 
93.737   9.80000000e+01 
93.701   1.08000000e+02 
93.665   9.70000000e+01 
93.629   1.09000000e+02 
93.593   1.05000000e+02 
93.557   9.50000000e+01 
93.521   1.27000000e+02 
93.485   1.20000000e+02 
93.449   9.60000000e+01 
93.413   9.20000000e+01 
93.377   9.80000000e+01 
93.341   1.18000000e+02 
93.305   1.07000000e+02 
93.270   1.05000000e+02 
93.234   9.90000000e+01 
93.198   9.60000000e+01 
93.162   9.90000000e+01 
93.126   1.18000000e+02 
93.090   1.15000000e+02 
93.054   9.60000000e+01 
93.018   1.27000000e+02 
92.982   1.30000000e+02 
92.946   1.27000000e+02 
92.910   1.12000000e+02 
92.874   1.16000000e+02 
92.838   1.26000000e+02 
92.802   1.33000000e+02 
92.766   1.21000000e+02 
92.730   1.17000000e+02 
92.695   1.19000000e+02 
92.659   1.28000000e+02 
92.623   1.56000000e+02 
92.587   1.28000000e+02 
92.551   1.97000000e+02 
92.515   1.65000000e+02 
92.479   1.47000000e+02 
92.443   1.94000000e+02 
92.407   1.73000000e+02 
92.371   1.92000000e+02 
92.335   1.98000000e+02 
92.299   2.05000000e+02 
92.263   2.13000000e+02 
92.227   2.38000000e+02 
92.191   2.30000000e+02 
92.155   2.58000000e+02 
92.120   2.53000000e+02 
92.084   2.75000000e+02 
92.048   3.17000000e+02 
92.012   3.40000000e+02 
91.976   3.42000000e+02 
91.940   3.47000000e+02 
91.904   3.53000000e+02 
91.868   4.23000000e+02 
91.832   3.91000000e+02 
91.796   4.90000000e+02 
91.760   4.64000000e+02 
91.724   5.17000000e+02 
91.688   5.03000000e+02 
91.652   5.49000000e+02 
91.616   5.63000000e+02 
91.580   5.74000000e+02 
91.545   6.46000000e+02 
91.509   6.13000000e+02 
91.473   6.41000000e+02 
91.437   6.59000000e+02 
91.401   7.23000000e+02 
91.365   7.09000000e+02 
91.329   6.92000000e+02 
91.293   6.69000000e+02 
91.257   6.86000000e+02 
91.221   6.88000000e+02 
91.185   6.50000000e+02 
91.149   5.82000000e+02 
91.113   5.78000000e+02 
91.077   5.68000000e+02 
91.041   5.09000000e+02 
91.005   4.54000000e+02 
90.970   4.26000000e+02 
90.934   3.27000000e+02 
90.898   3.20000000e+02 
90.862   2.78000000e+02 
90.826   2.29000000e+02 
90.790   2.17000000e+02 
90.754   1.98000000e+02 
90.718   1.77000000e+02 
90.682   1.57000000e+02 
90.646   1.76000000e+02 
90.610   1.60000000e+02 
90.574   1.20000000e+02 
90.538   1.25000000e+02 
90.502   1.18000000e+02 
90.466   1.32000000e+02 
90.430   1.22000000e+02 
90.395   1.11000000e+02 
90.359   8.90000000e+01 
90.323   1.01000000e+02 
90.287   8.80000000e+01 
90.251   8.90000000e+01 
90.215   8.70000000e+01 
90.179   8.90000000e+01 
90.143   7.60000000e+01 
90.107   7.80000000e+01 
90.071   7.30000000e+01 
90.035   6.70000000e+01 
89.999   6.90000000e+01 
89.963   7.70000000e+01 
89.927   5.70000000e+01 
89.891   4.90000000e+01 
89.855   6.60000000e+01 
89.820   6.30000000e+01 
89.784   6.00000000e+01 
89.748   7.10000000e+01 
89.712   5.60000000e+01 
89.676   5.50000000e+01 
89.640   4.60000000e+01 
89.604   7.00000000e+01 
89.568   5.50000000e+01 
89.532   6.30000000e+01 
89.496   5.50000000e+01 
89.460   4.00000000e+01 
89.424   6.10000000e+01 
89.388   5.40000000e+01 
89.352   6.30000000e+01 
89.316   6.50000000e+01 
89.280   5.50000000e+01 
89.245   6.00000000e+01 
89.209   6.20000000e+01 
89.173   3.60000000e+01 
89.137   5.70000000e+01 
89.101   4.50000000e+01 
89.065   4.90000000e+01 
89.029   4.20000000e+01 
88.993   4.20000000e+01 
88.957   4.80000000e+01 
88.921   5.50000000e+01 
88.885   4.10000000e+01 
88.849   5.20000000e+01 
88.813   6.10000000e+01 
88.777   5.00000000e+01 
88.741   4.90000000e+01 
88.705   4.00000000e+01 
88.670   5.60000000e+01 
88.634   4.70000000e+01 
88.598   5.60000000e+01 
88.562   4.90000000e+01 
88.526   6.10000000e+01 
88.490   5.40000000e+01 
88.454   5.90000000e+01 
88.418   5.30000000e+01 
88.382   4.50000000e+01 
88.346   4.90000000e+01 
88.310   4.80000000e+01 
88.274   4.40000000e+01 
88.238   4.60000000e+01 
88.202   5.30000000e+01 
88.166   5.00000000e+01 
88.130   5.60000000e+01 
88.095   4.30000000e+01 
88.059   4.60000000e+01 
88.023   3.90000000e+01 

