EXPERIMENT FILE
Version = 2

[ Experiment Parameters ]
Experiment Description= <none> 
Number_of_Regions_in_Experiment= 1 

Original_File_name= C:\alexesca\data\10192012_Au _4f_59nuetral-9_Mono205.xps 
Instrument= HP ESCA West
Date= 10-19-2012
Time=  15:03:12

[ Layer Parameters ]
Layer_Type= XPS

[ Region 1 Parameters ]
Region_Description = Au 4f Dithered Scan                
BEcenter(eV) = 93.000000
BEwidth(eV) = 10.000000
BEstep(eV) = 0.035937
Dwell_Time(sec) = 1.000000
N_o_scans = 1  
N_o_Channels = 278  
Scan_mode = 0  (DITHERED)

[ L= 1 R= 1 ]
BEcenter= 93.000  
BEwidth= -9.955  
Excitation= 1486.600
Time_p_channel= 256.000 
Size= 278
97.977   2.37000000e+02 
97.941   2.48000000e+02 
97.905   2.49000000e+02 
97.870   2.26000000e+02 
97.834   2.45000000e+02 
97.798   2.56000000e+02 
97.762   2.59000000e+02 
97.726   2.61000000e+02 
97.690   2.35000000e+02 
97.654   2.62000000e+02 
97.618   2.44000000e+02 
97.582   2.32000000e+02 
97.546   2.55000000e+02 
97.510   2.87000000e+02 
97.474   2.33000000e+02 
97.438   2.79000000e+02 
97.402   2.73000000e+02 
97.366   2.58000000e+02 
97.330   2.65000000e+02 
97.295   2.67000000e+02 
97.259   2.78000000e+02 
97.223   2.60000000e+02 
97.187   2.75000000e+02 
97.151   2.77000000e+02 
97.115   2.71000000e+02 
97.079   2.69000000e+02 
97.043   2.67000000e+02 
97.007   2.44000000e+02 
96.971   2.87000000e+02 
96.935   2.68000000e+02 
96.899   2.74000000e+02 
96.863   2.92000000e+02 
96.827   2.80000000e+02 
96.791   2.93000000e+02 
96.755   2.77000000e+02 
96.720   3.04000000e+02 
96.684   3.31000000e+02 
96.648   3.23000000e+02 
96.612   3.08000000e+02 
96.576   3.42000000e+02 
96.540   2.98000000e+02 
96.504   3.26000000e+02 
96.468   3.55000000e+02 
96.432   3.65000000e+02 
96.396   3.47000000e+02 
96.360   3.77000000e+02 
96.324   3.59000000e+02 
96.288   3.47000000e+02 
96.252   3.76000000e+02 
96.216   3.60000000e+02 
96.180   4.12000000e+02 
96.145   4.23000000e+02 
96.109   3.90000000e+02 
96.073   4.13000000e+02 
96.037   4.34000000e+02 
96.001   4.51000000e+02 
95.965   4.90000000e+02 
95.929   5.11000000e+02 
95.893   5.14000000e+02 
95.857   5.06000000e+02 
95.821   5.42000000e+02 
95.785   5.84000000e+02 
95.749   5.99000000e+02 
95.713   5.79000000e+02 
95.677   5.91000000e+02 
95.641   6.53000000e+02 
95.605   6.99000000e+02 
95.570   7.35000000e+02 
95.534   7.92000000e+02 
95.498   7.76000000e+02 
95.462   7.63000000e+02 
95.426   8.77000000e+02 
95.390   9.36000000e+02 
95.354   9.12000000e+02 
95.318   9.37000000e+02 
95.282   9.60000000e+02 
95.246   1.03100000e+03 
95.210   1.11400000e+03 
95.174   1.08000000e+03 
95.138   1.13100000e+03 
95.102   1.16400000e+03 
95.066   1.20100000e+03 
95.030   1.28600000e+03 
94.995   1.25000000e+03 
94.959   1.28800000e+03 
94.923   1.36900000e+03 
94.887   1.30200000e+03 
94.851   1.38500000e+03 
94.815   1.38900000e+03 
94.779   1.40400000e+03 
94.743   1.43900000e+03 
94.707   1.35600000e+03 
94.671   1.41300000e+03 
94.635   1.31300000e+03 
94.599   1.29500000e+03 
94.563   1.22400000e+03 
94.527   1.15200000e+03 
94.491   1.13800000e+03 
94.455   1.11600000e+03 
94.420   9.27000000e+02 
94.384   8.67000000e+02 
94.348   8.34000000e+02 
94.312   7.76000000e+02 
94.276   6.10000000e+02 
94.240   6.47000000e+02 
94.204   5.39000000e+02 
94.168   5.85000000e+02 
94.132   4.57000000e+02 
94.096   4.68000000e+02 
94.060   3.92000000e+02 
94.024   3.90000000e+02 
93.988   3.97000000e+02 
93.952   3.21000000e+02 
93.916   3.21000000e+02 
93.880   2.93000000e+02 
93.845   3.18000000e+02 
93.809   2.82000000e+02 
93.773   2.61000000e+02 
93.737   2.93000000e+02 
93.701   3.16000000e+02 
93.665   3.01000000e+02 
93.629   2.84000000e+02 
93.593   3.05000000e+02 
93.557   2.74000000e+02 
93.521   3.12000000e+02 
93.485   2.70000000e+02 
93.449   2.43000000e+02 
93.413   2.78000000e+02 
93.377   2.50000000e+02 
93.341   2.48000000e+02 
93.305   2.58000000e+02 
93.270   2.39000000e+02 
93.234   2.60000000e+02 
93.198   2.57000000e+02 
93.162   2.62000000e+02 
93.126   2.63000000e+02 
93.090   2.82000000e+02 
93.054   3.20000000e+02 
93.018   2.64000000e+02 
92.982   2.75000000e+02 
92.946   2.94000000e+02 
92.910   3.09000000e+02 
92.874   3.20000000e+02 
92.838   3.32000000e+02 
92.802   3.22000000e+02 
92.766   3.07000000e+02 
92.730   3.28000000e+02 
92.695   3.47000000e+02 
92.659   3.14000000e+02 
92.623   3.51000000e+02 
92.587   3.66000000e+02 
92.551   4.20000000e+02 
92.515   4.18000000e+02 
92.479   4.12000000e+02 
92.443   4.01000000e+02 
92.407   4.58000000e+02 
92.371   4.68000000e+02 
92.335   4.81000000e+02 
92.299   5.32000000e+02 
92.263   5.27000000e+02 
92.227   5.50000000e+02 
92.191   5.63000000e+02 
92.155   5.70000000e+02 
92.120   6.03000000e+02 
92.084   6.38000000e+02 
92.048   6.85000000e+02 
92.012   7.05000000e+02 
91.976   6.97000000e+02 
91.940   7.27000000e+02 
91.904   7.78000000e+02 
91.868   8.53000000e+02 
91.832   8.41000000e+02 
91.796   9.25000000e+02 
91.760   9.69000000e+02 
91.724   1.04400000e+03 
91.688   1.03800000e+03 
91.652   1.06000000e+03 
91.616   1.14700000e+03 
91.580   1.17300000e+03 
91.545   1.17600000e+03 
91.509   1.30200000e+03 
91.473   1.36100000e+03 
91.437   1.34500000e+03 
91.401   1.39400000e+03 
91.365   1.47900000e+03 
91.329   1.55200000e+03 
91.293   1.56900000e+03 
91.257   1.56200000e+03 
91.221   1.67900000e+03 
91.185   1.61000000e+03 
91.149   1.68300000e+03 
91.113   1.61800000e+03 
91.077   1.70200000e+03 
91.041   1.64800000e+03 
91.005   1.59200000e+03 
90.970   1.53200000e+03 
90.934   1.45500000e+03 
90.898   1.42000000e+03 
90.862   1.35800000e+03 
90.826   1.26800000e+03 
90.790   1.14600000e+03 
90.754   1.13000000e+03 
90.718   1.05400000e+03 
90.682   8.74000000e+02 
90.646   8.20000000e+02 
90.610   6.94000000e+02 
90.574   6.91000000e+02 
90.538   6.11000000e+02 
90.502   5.68000000e+02 
90.466   4.67000000e+02 
90.430   4.04000000e+02 
90.395   4.43000000e+02 
90.359   4.05000000e+02 
90.323   3.12000000e+02 
90.287   3.07000000e+02 
90.251   2.69000000e+02 
90.215   2.57000000e+02 
90.179   2.37000000e+02 
90.143   2.34000000e+02 
90.107   1.83000000e+02 
90.071   2.14000000e+02 
90.035   2.22000000e+02 
89.999   2.04000000e+02 
89.963   1.93000000e+02 
89.927   1.85000000e+02 
89.891   1.67000000e+02 
89.855   1.84000000e+02 
89.820   1.77000000e+02 
89.784   1.76000000e+02 
89.748   1.79000000e+02 
89.712   1.85000000e+02 
89.676   1.59000000e+02 
89.640   1.66000000e+02 
89.604   1.41000000e+02 
89.568   1.48000000e+02 
89.532   1.51000000e+02 
89.496   1.55000000e+02 
89.460   1.48000000e+02 
89.424   1.34000000e+02 
89.388   1.59000000e+02 
89.352   1.41000000e+02 
89.316   1.30000000e+02 
89.280   1.41000000e+02 
89.245   1.38000000e+02 
89.209   1.13000000e+02 
89.173   1.18000000e+02 
89.137   1.17000000e+02 
89.101   1.30000000e+02 
89.065   1.34000000e+02 
89.029   1.56000000e+02 
88.993   1.31000000e+02 
88.957   1.21000000e+02 
88.921   1.37000000e+02 
88.885   1.42000000e+02 
88.849   1.26000000e+02 
88.813   1.21000000e+02 
88.777   1.07000000e+02 
88.741   1.40000000e+02 
88.705   1.06000000e+02 
88.670   1.25000000e+02 
88.634   1.10000000e+02 
88.598   1.03000000e+02 
88.562   1.26000000e+02 
88.526   1.19000000e+02 
88.490   1.13000000e+02 
88.454   1.08000000e+02 
88.418   1.19000000e+02 
88.382   1.14000000e+02 
88.346   8.00000000e+01 
88.310   9.00000000e+01 
88.274   1.09000000e+02 
88.238   1.15000000e+02 
88.202   9.90000000e+01 
88.166   9.10000000e+01 
88.130   1.10000000e+02 
88.095   1.09000000e+02 
88.059   1.25000000e+02 
88.023   1.15000000e+02 

