EXPERIMENT FILE
Version = 2

[ Experiment Parameters ]
Experiment Description= <none> 
Number_of_Regions_in_Experiment= 1 

Original_File_name= C:\alexesca\data\10192012_Au _4f_59nuetral-29_Mono235.xps 
Instrument= HP ESCA West
Date= 10-19-2012
Time=  16:42:21

[ Layer Parameters ]
Layer_Type= XPS

[ Region 1 Parameters ]
Region_Description = Au 4f Dithered Scan                
BEcenter(eV) = 93.000000
BEwidth(eV) = 10.000000
BEstep(eV) = 0.035937
Dwell_Time(sec) = 1.000000
N_o_scans = 1  
N_o_Channels = 278  
Scan_mode = 0  (DITHERED)

[ L= 1 R= 1 ]
BEcenter= 93.000  
BEwidth= -9.955  
Excitation= 1486.600
Time_p_channel= 256.000 
Size= 278
97.977   1.01000000e+02 
97.941   8.40000000e+01 
97.905   9.30000000e+01 
97.870   8.60000000e+01 
97.834   8.40000000e+01 
97.798   9.20000000e+01 
97.762   1.15000000e+02 
97.726   1.01000000e+02 
97.690   9.50000000e+01 
97.654   1.00000000e+02 
97.618   1.20000000e+02 
97.582   9.80000000e+01 
97.546   8.60000000e+01 
97.510   9.10000000e+01 
97.474   1.02000000e+02 
97.438   9.70000000e+01 
97.402   9.80000000e+01 
97.366   1.08000000e+02 
97.330   9.40000000e+01 
97.295   8.30000000e+01 
97.259   1.15000000e+02 
97.223   1.10000000e+02 
97.187   9.70000000e+01 
97.151   9.90000000e+01 
97.115   1.20000000e+02 
97.079   1.02000000e+02 
97.043   1.05000000e+02 
97.007   1.03000000e+02 
96.971   1.01000000e+02 
96.935   1.26000000e+02 
96.899   1.33000000e+02 
96.863   1.28000000e+02 
96.827   1.19000000e+02 
96.791   1.16000000e+02 
96.755   1.22000000e+02 
96.720   1.55000000e+02 
96.684   1.43000000e+02 
96.648   1.45000000e+02 
96.612   1.27000000e+02 
96.576   1.53000000e+02 
96.540   1.61000000e+02 
96.504   1.68000000e+02 
96.468   1.32000000e+02 
96.432   1.74000000e+02 
96.396   1.56000000e+02 
96.360   1.76000000e+02 
96.324   1.66000000e+02 
96.288   1.70000000e+02 
96.252   1.78000000e+02 
96.216   1.73000000e+02 
96.180   2.26000000e+02 
96.145   2.21000000e+02 
96.109   2.21000000e+02 
96.073   2.38000000e+02 
96.037   2.25000000e+02 
96.001   2.54000000e+02 
95.965   2.60000000e+02 
95.929   2.49000000e+02 
95.893   2.73000000e+02 
95.857   2.95000000e+02 
95.821   2.93000000e+02 
95.785   2.94000000e+02 
95.749   3.03000000e+02 
95.713   3.71000000e+02 
95.677   3.61000000e+02 
95.641   3.80000000e+02 
95.605   3.90000000e+02 
95.570   3.98000000e+02 
95.534   4.25000000e+02 
95.498   4.21000000e+02 
95.462   4.26000000e+02 
95.426   4.79000000e+02 
95.390   4.48000000e+02 
95.354   5.18000000e+02 
95.318   4.93000000e+02 
95.282   5.08000000e+02 
95.246   4.81000000e+02 
95.210   4.68000000e+02 
95.174   5.03000000e+02 
95.138   4.85000000e+02 
95.102   4.38000000e+02 
95.066   4.68000000e+02 
95.030   4.34000000e+02 
94.995   3.86000000e+02 
94.959   3.80000000e+02 
94.923   3.55000000e+02 
94.887   3.39000000e+02 
94.851   3.21000000e+02 
94.815   2.84000000e+02 
94.779   3.14000000e+02 
94.743   2.57000000e+02 
94.707   2.48000000e+02 
94.671   2.09000000e+02 
94.635   2.06000000e+02 
94.599   2.15000000e+02 
94.563   1.57000000e+02 
94.527   1.53000000e+02 
94.491   1.53000000e+02 
94.455   1.48000000e+02 
94.420   1.42000000e+02 
94.384   1.21000000e+02 
94.348   1.16000000e+02 
94.312   1.33000000e+02 
94.276   1.28000000e+02 
94.240   1.22000000e+02 
94.204   1.09000000e+02 
94.168   1.05000000e+02 
94.132   1.08000000e+02 
94.096   9.60000000e+01 
94.060   1.12000000e+02 
94.024   9.70000000e+01 
93.988   1.15000000e+02 
93.952   1.03000000e+02 
93.916   9.00000000e+01 
93.880   8.50000000e+01 
93.845   1.02000000e+02 
93.809   1.12000000e+02 
93.773   1.09000000e+02 
93.737   9.20000000e+01 
93.701   9.00000000e+01 
93.665   1.07000000e+02 
93.629   1.02000000e+02 
93.593   9.30000000e+01 
93.557   1.06000000e+02 
93.521   1.06000000e+02 
93.485   1.07000000e+02 
93.449   1.03000000e+02 
93.413   1.08000000e+02 
93.377   9.30000000e+01 
93.341   9.60000000e+01 
93.305   1.14000000e+02 
93.270   1.05000000e+02 
93.234   1.17000000e+02 
93.198   1.19000000e+02 
93.162   1.13000000e+02 
93.126   1.47000000e+02 
93.090   1.20000000e+02 
93.054   1.12000000e+02 
93.018   1.10000000e+02 
92.982   1.22000000e+02 
92.946   1.48000000e+02 
92.910   1.28000000e+02 
92.874   1.45000000e+02 
92.838   1.51000000e+02 
92.802   1.44000000e+02 
92.766   1.50000000e+02 
92.730   1.58000000e+02 
92.695   1.85000000e+02 
92.659   1.79000000e+02 
92.623   1.95000000e+02 
92.587   2.34000000e+02 
92.551   2.08000000e+02 
92.515   2.21000000e+02 
92.479   2.60000000e+02 
92.443   2.40000000e+02 
92.407   2.43000000e+02 
92.371   2.77000000e+02 
92.335   2.64000000e+02 
92.299   3.15000000e+02 
92.263   3.24000000e+02 
92.227   3.21000000e+02 
92.191   3.24000000e+02 
92.155   3.69000000e+02 
92.120   4.01000000e+02 
92.084   3.69000000e+02 
92.048   4.16000000e+02 
92.012   4.32000000e+02 
91.976   4.30000000e+02 
91.940   4.90000000e+02 
91.904   4.95000000e+02 
91.868   4.63000000e+02 
91.832   4.97000000e+02 
91.796   5.41000000e+02 
91.760   5.41000000e+02 
91.724   5.76000000e+02 
91.688   5.76000000e+02 
91.652   5.68000000e+02 
91.616   5.87000000e+02 
91.580   6.58000000e+02 
91.545   5.50000000e+02 
91.509   5.32000000e+02 
91.473   5.76000000e+02 
91.437   5.50000000e+02 
91.401   4.92000000e+02 
91.365   5.48000000e+02 
91.329   4.72000000e+02 
91.293   4.53000000e+02 
91.257   4.56000000e+02 
91.221   3.68000000e+02 
91.185   3.50000000e+02 
91.149   2.87000000e+02 
91.113   2.89000000e+02 
91.077   2.98000000e+02 
91.041   2.41000000e+02 
91.005   2.22000000e+02 
90.970   1.95000000e+02 
90.934   1.85000000e+02 
90.898   1.64000000e+02 
90.862   1.46000000e+02 
90.826   1.33000000e+02 
90.790   1.31000000e+02 
90.754   1.08000000e+02 
90.718   8.70000000e+01 
90.682   8.10000000e+01 
90.646   1.20000000e+02 
90.610   8.10000000e+01 
90.574   8.30000000e+01 
90.538   7.70000000e+01 
90.502   9.80000000e+01 
90.466   7.60000000e+01 
90.430   8.70000000e+01 
90.395   7.80000000e+01 
90.359   6.60000000e+01 
90.323   7.60000000e+01 
90.287   4.60000000e+01 
90.251   7.80000000e+01 
90.215   7.60000000e+01 
90.179   6.40000000e+01 
90.143   7.20000000e+01 
90.107   4.00000000e+01 
90.071   5.70000000e+01 
90.035   5.20000000e+01 
89.999   5.60000000e+01 
89.963   5.80000000e+01 
89.927   5.20000000e+01 
89.891   5.10000000e+01 
89.855   6.40000000e+01 
89.820   4.30000000e+01 
89.784   4.70000000e+01 
89.748   5.70000000e+01 
89.712   4.60000000e+01 
89.676   5.00000000e+01 
89.640   6.20000000e+01 
89.604   5.60000000e+01 
89.568   4.10000000e+01 
89.532   4.80000000e+01 
89.496   5.30000000e+01 
89.460   5.50000000e+01 
89.424   4.20000000e+01 
89.388   4.60000000e+01 
89.352   5.30000000e+01 
89.316   4.40000000e+01 
89.280   5.30000000e+01 
89.245   4.60000000e+01 
89.209   5.50000000e+01 
89.173   3.90000000e+01 
89.137   5.50000000e+01 
89.101   4.60000000e+01 
89.065   3.40000000e+01 
89.029   4.90000000e+01 
88.993   4.10000000e+01 
88.957   4.30000000e+01 
88.921   5.00000000e+01 
88.885   4.80000000e+01 
88.849   4.70000000e+01 
88.813   5.00000000e+01 
88.777   4.10000000e+01 
88.741   4.20000000e+01 
88.705   5.10000000e+01 
88.670   3.90000000e+01 
88.634   4.70000000e+01 
88.598   3.90000000e+01 
88.562   3.80000000e+01 
88.526   3.50000000e+01 
88.490   4.50000000e+01 
88.454   3.70000000e+01 
88.418   4.50000000e+01 
88.382   4.70000000e+01 
88.346   5.00000000e+01 
88.310   4.60000000e+01 
88.274   5.50000000e+01 
88.238   4.00000000e+01 
88.202   4.70000000e+01 
88.166   3.30000000e+01 
88.130   5.10000000e+01 
88.095   3.50000000e+01 
88.059   4.70000000e+01 
88.023   3.10000000e+01 

