EXPERIMENT FILE
Version = 2

[ Experiment Parameters ]
Experiment Description= <none> 
Number_of_Regions_in_Experiment= 1 

Original_File_name= C:\alexesca\data\10192012_Au _4f_59nuetral-9_Mono235.xps 
Instrument= HP ESCA West
Date= 10-19-2012
Time=  16:19:34

[ Layer Parameters ]
Layer_Type= XPS

[ Region 1 Parameters ]
Region_Description = Au 4f Dithered Scan                
BEcenter(eV) = 93.000000
BEwidth(eV) = 10.000000
BEstep(eV) = 0.035937
Dwell_Time(sec) = 1.000000
N_o_scans = 1  
N_o_Channels = 278  
Scan_mode = 0  (DITHERED)

[ L= 1 R= 1 ]
BEcenter= 93.000  
BEwidth= -9.955  
Excitation= 1486.600
Time_p_channel= 256.000 
Size= 278
97.977   2.62000000e+02 
97.941   2.38000000e+02 
97.905   2.26000000e+02 
97.870   2.31000000e+02 
97.834   2.55000000e+02 
97.798   2.59000000e+02 
97.762   2.47000000e+02 
97.726   2.40000000e+02 
97.690   2.54000000e+02 
97.654   2.83000000e+02 
97.618   2.60000000e+02 
97.582   2.52000000e+02 
97.546   2.36000000e+02 
97.510   2.55000000e+02 
97.474   2.44000000e+02 
97.438   2.47000000e+02 
97.402   2.59000000e+02 
97.366   2.43000000e+02 
97.330   2.56000000e+02 
97.295   2.57000000e+02 
97.259   2.81000000e+02 
97.223   2.98000000e+02 
97.187   2.86000000e+02 
97.151   2.97000000e+02 
97.115   3.19000000e+02 
97.079   3.26000000e+02 
97.043   2.97000000e+02 
97.007   3.36000000e+02 
96.971   2.83000000e+02 
96.935   3.56000000e+02 
96.899   3.13000000e+02 
96.863   3.48000000e+02 
96.827   3.72000000e+02 
96.791   3.66000000e+02 
96.755   4.06000000e+02 
96.720   4.16000000e+02 
96.684   4.01000000e+02 
96.648   4.35000000e+02 
96.612   4.31000000e+02 
96.576   4.57000000e+02 
96.540   4.47000000e+02 
96.504   4.79000000e+02 
96.468   4.92000000e+02 
96.432   5.28000000e+02 
96.396   5.18000000e+02 
96.360   6.06000000e+02 
96.324   6.23000000e+02 
96.288   6.31000000e+02 
96.252   6.36000000e+02 
96.216   6.63000000e+02 
96.180   7.07000000e+02 
96.145   7.11000000e+02 
96.109   6.75000000e+02 
96.073   7.68000000e+02 
96.037   7.83000000e+02 
96.001   8.53000000e+02 
95.965   8.60000000e+02 
95.929   9.36000000e+02 
95.893   8.48000000e+02 
95.857   9.33000000e+02 
95.821   9.53000000e+02 
95.785   1.00500000e+03 
95.749   9.54000000e+02 
95.713   1.09000000e+03 
95.677   1.06600000e+03 
95.641   1.05200000e+03 
95.605   1.05600000e+03 
95.570   1.15200000e+03 
95.534   1.16600000e+03 
95.498   1.16800000e+03 
95.462   1.23100000e+03 
95.426   1.24000000e+03 
95.390   1.19600000e+03 
95.354   1.26000000e+03 
95.318   1.21700000e+03 
95.282   1.15000000e+03 
95.246   1.20500000e+03 
95.210   1.20200000e+03 
95.174   1.14000000e+03 
95.138   1.16300000e+03 
95.102   1.07900000e+03 
95.066   1.06700000e+03 
95.030   9.47000000e+02 
94.995   9.30000000e+02 
94.959   8.73000000e+02 
94.923   8.68000000e+02 
94.887   7.92000000e+02 
94.851   7.24000000e+02 
94.815   6.95000000e+02 
94.779   5.93000000e+02 
94.743   5.88000000e+02 
94.707   5.09000000e+02 
94.671   5.02000000e+02 
94.635   4.71000000e+02 
94.599   5.01000000e+02 
94.563   4.03000000e+02 
94.527   4.33000000e+02 
94.491   3.43000000e+02 
94.455   3.86000000e+02 
94.420   3.44000000e+02 
94.384   3.45000000e+02 
94.348   3.34000000e+02 
94.312   3.35000000e+02 
94.276   2.84000000e+02 
94.240   2.99000000e+02 
94.204   3.05000000e+02 
94.168   2.94000000e+02 
94.132   2.89000000e+02 
94.096   2.91000000e+02 
94.060   2.74000000e+02 
94.024   2.69000000e+02 
93.988   2.43000000e+02 
93.952   2.51000000e+02 
93.916   2.39000000e+02 
93.880   2.70000000e+02 
93.845   2.56000000e+02 
93.809   2.51000000e+02 
93.773   2.86000000e+02 
93.737   2.90000000e+02 
93.701   2.79000000e+02 
93.665   2.65000000e+02 
93.629   2.55000000e+02 
93.593   2.88000000e+02 
93.557   2.89000000e+02 
93.521   2.94000000e+02 
93.485   2.89000000e+02 
93.449   2.93000000e+02 
93.413   3.20000000e+02 
93.377   2.94000000e+02 
93.341   3.24000000e+02 
93.305   3.29000000e+02 
93.270   3.41000000e+02 
93.234   3.34000000e+02 
93.198   3.80000000e+02 
93.162   3.55000000e+02 
93.126   4.04000000e+02 
93.090   3.99000000e+02 
93.054   4.57000000e+02 
93.018   3.91000000e+02 
92.982   4.18000000e+02 
92.946   4.66000000e+02 
92.910   4.93000000e+02 
92.874   4.89000000e+02 
92.838   5.28000000e+02 
92.802   5.58000000e+02 
92.766   5.49000000e+02 
92.730   5.88000000e+02 
92.695   6.63000000e+02 
92.659   6.59000000e+02 
92.623   6.83000000e+02 
92.587   6.84000000e+02 
92.551   6.95000000e+02 
92.515   7.20000000e+02 
92.479   8.72000000e+02 
92.443   8.23000000e+02 
92.407   8.92000000e+02 
92.371   9.06000000e+02 
92.335   9.29000000e+02 
92.299   9.76000000e+02 
92.263   9.97000000e+02 
92.227   1.02100000e+03 
92.191   1.08900000e+03 
92.155   1.14600000e+03 
92.120   1.15000000e+03 
92.084   1.17800000e+03 
92.048   1.25000000e+03 
92.012   1.20100000e+03 
91.976   1.25600000e+03 
91.940   1.30700000e+03 
91.904   1.37000000e+03 
91.868   1.40300000e+03 
91.832   1.39000000e+03 
91.796   1.48000000e+03 
91.760   1.41500000e+03 
91.724   1.40200000e+03 
91.688   1.41900000e+03 
91.652   1.43800000e+03 
91.616   1.40700000e+03 
91.580   1.44600000e+03 
91.545   1.44200000e+03 
91.509   1.31400000e+03 
91.473   1.32700000e+03 
91.437   1.29100000e+03 
91.401   1.27600000e+03 
91.365   1.14900000e+03 
91.329   1.07200000e+03 
91.293   9.71000000e+02 
91.257   9.95000000e+02 
91.221   9.21000000e+02 
91.185   7.94000000e+02 
91.149   7.50000000e+02 
91.113   6.52000000e+02 
91.077   6.26000000e+02 
91.041   5.55000000e+02 
91.005   4.93000000e+02 
90.970   4.86000000e+02 
90.934   4.64000000e+02 
90.898   3.97000000e+02 
90.862   3.69000000e+02 
90.826   3.52000000e+02 
90.790   3.13000000e+02 
90.754   2.71000000e+02 
90.718   2.58000000e+02 
90.682   2.57000000e+02 
90.646   2.44000000e+02 
90.610   2.20000000e+02 
90.574   2.17000000e+02 
90.538   2.26000000e+02 
90.502   2.04000000e+02 
90.466   1.70000000e+02 
90.430   1.68000000e+02 
90.395   1.71000000e+02 
90.359   1.72000000e+02 
90.323   1.43000000e+02 
90.287   1.63000000e+02 
90.251   1.48000000e+02 
90.215   1.44000000e+02 
90.179   1.41000000e+02 
90.143   1.30000000e+02 
90.107   1.48000000e+02 
90.071   1.53000000e+02 
90.035   1.53000000e+02 
89.999   1.38000000e+02 
89.963   1.46000000e+02 
89.927   1.30000000e+02 
89.891   1.13000000e+02 
89.855   1.14000000e+02 
89.820   1.23000000e+02 
89.784   1.31000000e+02 
89.748   1.28000000e+02 
89.712   1.06000000e+02 
89.676   1.14000000e+02 
89.640   1.26000000e+02 
89.604   1.09000000e+02 
89.568   9.80000000e+01 
89.532   1.14000000e+02 
89.496   1.09000000e+02 
89.460   1.22000000e+02 
89.424   1.25000000e+02 
89.388   1.19000000e+02 
89.352   1.06000000e+02 
89.316   1.07000000e+02 
89.280   9.80000000e+01 
89.245   9.70000000e+01 
89.209   1.05000000e+02 
89.173   9.00000000e+01 
89.137   1.10000000e+02 
89.101   1.09000000e+02 
89.065   9.90000000e+01 
89.029   1.00000000e+02 
88.993   8.80000000e+01 
88.957   1.22000000e+02 
88.921   1.06000000e+02 
88.885   1.01000000e+02 
88.849   8.80000000e+01 
88.813   1.23000000e+02 
88.777   9.20000000e+01 
88.741   1.05000000e+02 
88.705   8.50000000e+01 
88.670   8.30000000e+01 
88.634   1.18000000e+02 
88.598   1.10000000e+02 
88.562   9.20000000e+01 
88.526   8.30000000e+01 
88.490   9.20000000e+01 
88.454   9.80000000e+01 
88.418   1.10000000e+02 
88.382   9.70000000e+01 
88.346   9.50000000e+01 
88.310   9.70000000e+01 
88.274   8.20000000e+01 
88.238   8.90000000e+01 
88.202   8.50000000e+01 
88.166   1.02000000e+02 
88.130   1.18000000e+02 
88.095   9.50000000e+01 
88.059   1.00000000e+02 
88.023   1.06000000e+02 

