EXPERIMENT FILE
Version = 2

[ Experiment Parameters ]
Experiment Description= <none> 
Number_of_Regions_in_Experiment= 1 

Original_File_name= C:\alexesca\data\10222012_Au _4f_59nuetral-29_Mono225.xps 
Instrument= HP ESCA West
Date= 10-22-2012
Time=  12:14:26

[ Layer Parameters ]
Layer_Type= XPS

[ Region 1 Parameters ]
Region_Description = Au 4f Dithered Scan                
BEcenter(eV) = 93.000000
BEwidth(eV) = 10.000000
BEstep(eV) = 0.035937
Dwell_Time(sec) = 1.000000
N_o_scans = 1  
N_o_Channels = 278  
Scan_mode = 0  (DITHERED)

[ L= 1 R= 1 ]
BEcenter= 93.000  
BEwidth= -9.955  
Excitation= 1486.600
Time_p_channel= 256.000 
Size= 278
97.977   9.50000000e+01 
97.941   1.14000000e+02 
97.905   1.01000000e+02 
97.870   8.20000000e+01 
97.834   1.02000000e+02 
97.798   1.12000000e+02 
97.762   1.09000000e+02 
97.726   1.11000000e+02 
97.690   8.20000000e+01 
97.654   8.40000000e+01 
97.618   1.14000000e+02 
97.582   1.08000000e+02 
97.546   1.21000000e+02 
97.510   9.90000000e+01 
97.474   8.90000000e+01 
97.438   1.09000000e+02 
97.402   9.90000000e+01 
97.366   1.09000000e+02 
97.330   9.80000000e+01 
97.295   1.19000000e+02 
97.259   1.09000000e+02 
97.223   1.09000000e+02 
97.187   9.20000000e+01 
97.151   1.00000000e+02 
97.115   1.21000000e+02 
97.079   1.22000000e+02 
97.043   1.12000000e+02 
97.007   1.27000000e+02 
96.971   1.16000000e+02 
96.935   1.27000000e+02 
96.899   1.02000000e+02 
96.863   1.23000000e+02 
96.827   1.40000000e+02 
96.791   1.33000000e+02 
96.755   1.49000000e+02 
96.720   1.38000000e+02 
96.684   1.23000000e+02 
96.648   1.47000000e+02 
96.612   1.29000000e+02 
96.576   1.67000000e+02 
96.540   1.49000000e+02 
96.504   1.42000000e+02 
96.468   1.68000000e+02 
96.432   1.82000000e+02 
96.396   1.81000000e+02 
96.360   1.77000000e+02 
96.324   1.96000000e+02 
96.288   2.02000000e+02 
96.252   1.99000000e+02 
96.216   2.02000000e+02 
96.180   2.59000000e+02 
96.145   2.32000000e+02 
96.109   2.71000000e+02 
96.073   2.77000000e+02 
96.037   2.89000000e+02 
96.001   3.31000000e+02 
95.965   2.89000000e+02 
95.929   3.14000000e+02 
95.893   3.32000000e+02 
95.857   3.58000000e+02 
95.821   3.47000000e+02 
95.785   3.96000000e+02 
95.749   4.02000000e+02 
95.713   3.99000000e+02 
95.677   4.00000000e+02 
95.641   4.22000000e+02 
95.605   4.35000000e+02 
95.570   4.91000000e+02 
95.534   4.74000000e+02 
95.498   4.71000000e+02 
95.462   4.80000000e+02 
95.426   5.12000000e+02 
95.390   5.20000000e+02 
95.354   5.14000000e+02 
95.318   5.34000000e+02 
95.282   4.93000000e+02 
95.246   4.41000000e+02 
95.210   5.14000000e+02 
95.174   4.85000000e+02 
95.138   4.43000000e+02 
95.102   3.79000000e+02 
95.066   3.58000000e+02 
95.030   3.77000000e+02 
94.995   3.15000000e+02 
94.959   3.41000000e+02 
94.923   2.86000000e+02 
94.887   2.42000000e+02 
94.851   2.60000000e+02 
94.815   2.39000000e+02 
94.779   2.30000000e+02 
94.743   1.86000000e+02 
94.707   1.91000000e+02 
94.671   1.69000000e+02 
94.635   1.54000000e+02 
94.599   1.58000000e+02 
94.563   1.35000000e+02 
94.527   1.34000000e+02 
94.491   1.45000000e+02 
94.455   1.35000000e+02 
94.420   1.29000000e+02 
94.384   1.07000000e+02 
94.348   1.34000000e+02 
94.312   1.18000000e+02 
94.276   1.22000000e+02 
94.240   1.15000000e+02 
94.204   1.29000000e+02 
94.168   1.13000000e+02 
94.132   9.90000000e+01 
94.096   1.04000000e+02 
94.060   1.05000000e+02 
94.024   8.50000000e+01 
93.988   9.70000000e+01 
93.952   8.90000000e+01 
93.916   1.07000000e+02 
93.880   9.70000000e+01 
93.845   1.02000000e+02 
93.809   1.00000000e+02 
93.773   1.10000000e+02 
93.737   9.70000000e+01 
93.701   1.05000000e+02 
93.665   8.60000000e+01 
93.629   1.03000000e+02 
93.593   1.11000000e+02 
93.557   9.60000000e+01 
93.521   1.09000000e+02 
93.485   1.08000000e+02 
93.449   1.02000000e+02 
93.413   1.06000000e+02 
93.377   9.70000000e+01 
93.341   1.30000000e+02 
93.305   1.00000000e+02 
93.270   1.16000000e+02 
93.234   1.04000000e+02 
93.198   1.13000000e+02 
93.162   1.48000000e+02 
93.126   1.35000000e+02 
93.090   1.35000000e+02 
93.054   1.32000000e+02 
93.018   1.26000000e+02 
92.982   1.31000000e+02 
92.946   1.40000000e+02 
92.910   1.71000000e+02 
92.874   1.65000000e+02 
92.838   1.58000000e+02 
92.802   1.51000000e+02 
92.766   1.77000000e+02 
92.730   1.97000000e+02 
92.695   1.74000000e+02 
92.659   1.93000000e+02 
92.623   2.07000000e+02 
92.587   2.30000000e+02 
92.551   2.28000000e+02 
92.515   2.56000000e+02 
92.479   2.71000000e+02 
92.443   2.45000000e+02 
92.407   2.75000000e+02 
92.371   3.04000000e+02 
92.335   3.23000000e+02 
92.299   3.21000000e+02 
92.263   3.61000000e+02 
92.227   4.04000000e+02 
92.191   3.60000000e+02 
92.155   4.38000000e+02 
92.120   4.00000000e+02 
92.084   4.22000000e+02 
92.048   4.56000000e+02 
92.012   4.60000000e+02 
91.976   5.06000000e+02 
91.940   4.76000000e+02 
91.904   5.20000000e+02 
91.868   6.21000000e+02 
91.832   5.54000000e+02 
91.796   5.40000000e+02 
91.760   5.72000000e+02 
91.724   5.95000000e+02 
91.688   6.14000000e+02 
91.652   5.66000000e+02 
91.616   6.08000000e+02 
91.580   6.15000000e+02 
91.545   5.38000000e+02 
91.509   5.79000000e+02 
91.473   5.01000000e+02 
91.437   4.79000000e+02 
91.401   4.76000000e+02 
91.365   4.18000000e+02 
91.329   3.96000000e+02 
91.293   3.61000000e+02 
91.257   3.25000000e+02 
91.221   3.08000000e+02 
91.185   2.70000000e+02 
91.149   2.22000000e+02 
91.113   2.21000000e+02 
91.077   2.04000000e+02 
91.041   1.86000000e+02 
91.005   1.44000000e+02 
90.970   1.41000000e+02 
90.934   1.31000000e+02 
90.898   1.35000000e+02 
90.862   1.11000000e+02 
90.826   1.19000000e+02 
90.790   1.24000000e+02 
90.754   1.10000000e+02 
90.718   9.40000000e+01 
90.682   9.80000000e+01 
90.646   7.10000000e+01 
90.610   7.90000000e+01 
90.574   7.50000000e+01 
90.538   7.80000000e+01 
90.502   6.60000000e+01 
90.466   7.00000000e+01 
90.430   7.50000000e+01 
90.395   6.20000000e+01 
90.359   5.00000000e+01 
90.323   6.60000000e+01 
90.287   6.50000000e+01 
90.251   5.30000000e+01 
90.215   7.90000000e+01 
90.179   4.40000000e+01 
90.143   5.00000000e+01 
90.107   6.30000000e+01 
90.071   5.80000000e+01 
90.035   6.20000000e+01 
89.999   6.40000000e+01 
89.963   6.30000000e+01 
89.927   5.80000000e+01 
89.891   5.40000000e+01 
89.855   4.20000000e+01 
89.820   6.40000000e+01 
89.784   4.70000000e+01 
89.748   5.60000000e+01 
89.712   4.70000000e+01 
89.676   4.40000000e+01 
89.640   4.30000000e+01 
89.604   4.00000000e+01 
89.568   5.60000000e+01 
89.532   4.50000000e+01 
89.496   6.60000000e+01 
89.460   6.10000000e+01 
89.424   4.40000000e+01 
89.388   4.30000000e+01 
89.352   5.10000000e+01 
89.316   4.00000000e+01 
89.280   3.40000000e+01 
89.245   3.10000000e+01 
89.209   3.90000000e+01 
89.173   4.70000000e+01 
89.137   5.60000000e+01 
89.101   5.60000000e+01 
89.065   5.00000000e+01 
89.029   5.00000000e+01 
88.993   4.30000000e+01 
88.957   3.40000000e+01 
88.921   3.70000000e+01 
88.885   4.20000000e+01 
88.849   4.30000000e+01 
88.813   4.30000000e+01 
88.777   3.40000000e+01 
88.741   5.40000000e+01 
88.705   3.80000000e+01 
88.670   5.10000000e+01 
88.634   5.00000000e+01 
88.598   3.70000000e+01 
88.562   4.10000000e+01 
88.526   4.30000000e+01 
88.490   4.10000000e+01 
88.454   4.40000000e+01 
88.418   3.90000000e+01 
88.382   3.60000000e+01 
88.346   3.80000000e+01 
88.310   5.10000000e+01 
88.274   4.20000000e+01 
88.238   5.00000000e+01 
88.202   5.00000000e+01 
88.166   5.10000000e+01 
88.130   4.50000000e+01 
88.095   4.50000000e+01 
88.059   4.10000000e+01 
88.023   2.90000000e+01 

