EXPERIMENT FILE
Version = 2

[ Experiment Parameters ]
Experiment Description= <none> 
Number_of_Regions_in_Experiment= 1 

Original_File_name= C:\alexesca\data\10222012_Au _4f_59nuetral-29_Mono222.xps 
Instrument= HP ESCA West
Date= 10-22-2012
Time=  14:50:21

[ Layer Parameters ]
Layer_Type= XPS

[ Region 1 Parameters ]
Region_Description = Au 4f Dithered Scan                
BEcenter(eV) = 93.000000
BEwidth(eV) = 10.000000
BEstep(eV) = 0.035937
Dwell_Time(sec) = 1.000000
N_o_scans = 1  
N_o_Channels = 278  
Scan_mode = 0  (DITHERED)

[ L= 1 R= 1 ]
BEcenter= 93.000  
BEwidth= -9.955  
Excitation= 1486.600
Time_p_channel= 256.000 
Size= 278
97.977   9.50000000e+01 
97.941   1.03000000e+02 
97.905   1.10000000e+02 
97.870   1.11000000e+02 
97.834   9.70000000e+01 
97.798   8.70000000e+01 
97.762   8.90000000e+01 
97.726   1.15000000e+02 
97.690   1.02000000e+02 
97.654   1.10000000e+02 
97.618   9.50000000e+01 
97.582   1.12000000e+02 
97.546   9.70000000e+01 
97.510   9.40000000e+01 
97.474   1.17000000e+02 
97.438   9.20000000e+01 
97.402   9.10000000e+01 
97.366   9.80000000e+01 
97.330   9.40000000e+01 
97.295   1.01000000e+02 
97.259   9.40000000e+01 
97.223   1.09000000e+02 
97.187   1.07000000e+02 
97.151   9.90000000e+01 
97.115   8.90000000e+01 
97.079   1.08000000e+02 
97.043   9.80000000e+01 
97.007   1.02000000e+02 
96.971   1.16000000e+02 
96.935   9.20000000e+01 
96.899   1.09000000e+02 
96.863   1.26000000e+02 
96.827   1.37000000e+02 
96.791   1.43000000e+02 
96.755   1.28000000e+02 
96.720   1.36000000e+02 
96.684   1.20000000e+02 
96.648   1.39000000e+02 
96.612   1.59000000e+02 
96.576   1.60000000e+02 
96.540   1.38000000e+02 
96.504   1.25000000e+02 
96.468   1.59000000e+02 
96.432   1.62000000e+02 
96.396   1.58000000e+02 
96.360   1.53000000e+02 
96.324   1.89000000e+02 
96.288   2.18000000e+02 
96.252   1.82000000e+02 
96.216   1.93000000e+02 
96.180   2.06000000e+02 
96.145   1.99000000e+02 
96.109   2.09000000e+02 
96.073   2.29000000e+02 
96.037   2.43000000e+02 
96.001   2.79000000e+02 
95.965   2.20000000e+02 
95.929   2.88000000e+02 
95.893   2.71000000e+02 
95.857   3.21000000e+02 
95.821   3.26000000e+02 
95.785   3.27000000e+02 
95.749   3.55000000e+02 
95.713   3.52000000e+02 
95.677   3.58000000e+02 
95.641   3.92000000e+02 
95.605   3.71000000e+02 
95.570   4.24000000e+02 
95.534   4.51000000e+02 
95.498   4.46000000e+02 
95.462   4.91000000e+02 
95.426   5.00000000e+02 
95.390   5.07000000e+02 
95.354   5.22000000e+02 
95.318   5.29000000e+02 
95.282   5.00000000e+02 
95.246   4.77000000e+02 
95.210   5.09000000e+02 
95.174   5.29000000e+02 
95.138   5.30000000e+02 
95.102   4.69000000e+02 
95.066   4.86000000e+02 
95.030   4.60000000e+02 
94.995   3.87000000e+02 
94.959   4.25000000e+02 
94.923   3.66000000e+02 
94.887   3.34000000e+02 
94.851   3.20000000e+02 
94.815   2.88000000e+02 
94.779   2.70000000e+02 
94.743   2.24000000e+02 
94.707   2.27000000e+02 
94.671   2.08000000e+02 
94.635   1.80000000e+02 
94.599   1.72000000e+02 
94.563   1.61000000e+02 
94.527   1.45000000e+02 
94.491   1.37000000e+02 
94.455   1.50000000e+02 
94.420   1.49000000e+02 
94.384   1.35000000e+02 
94.348   1.15000000e+02 
94.312   1.21000000e+02 
94.276   1.06000000e+02 
94.240   1.47000000e+02 
94.204   9.00000000e+01 
94.168   1.35000000e+02 
94.132   1.16000000e+02 
94.096   1.11000000e+02 
94.060   1.04000000e+02 
94.024   9.80000000e+01 
93.988   1.04000000e+02 
93.952   1.12000000e+02 
93.916   1.11000000e+02 
93.880   9.70000000e+01 
93.845   9.10000000e+01 
93.809   9.80000000e+01 
93.773   1.14000000e+02 
93.737   9.70000000e+01 
93.701   8.80000000e+01 
93.665   1.05000000e+02 
93.629   1.08000000e+02 
93.593   1.09000000e+02 
93.557   1.07000000e+02 
93.521   1.00000000e+02 
93.485   1.07000000e+02 
93.449   9.20000000e+01 
93.413   9.60000000e+01 
93.377   9.70000000e+01 
93.341   9.30000000e+01 
93.305   9.80000000e+01 
93.270   9.70000000e+01 
93.234   1.17000000e+02 
93.198   1.11000000e+02 
93.162   1.08000000e+02 
93.126   1.03000000e+02 
93.090   1.16000000e+02 
93.054   1.17000000e+02 
93.018   1.32000000e+02 
92.982   1.30000000e+02 
92.946   1.34000000e+02 
92.910   1.37000000e+02 
92.874   1.31000000e+02 
92.838   1.66000000e+02 
92.802   1.52000000e+02 
92.766   1.56000000e+02 
92.730   1.53000000e+02 
92.695   1.71000000e+02 
92.659   1.60000000e+02 
92.623   1.80000000e+02 
92.587   1.79000000e+02 
92.551   1.98000000e+02 
92.515   2.20000000e+02 
92.479   2.35000000e+02 
92.443   2.49000000e+02 
92.407   2.36000000e+02 
92.371   2.49000000e+02 
92.335   2.65000000e+02 
92.299   3.10000000e+02 
92.263   3.12000000e+02 
92.227   3.36000000e+02 
92.191   3.23000000e+02 
92.155   3.38000000e+02 
92.120   3.91000000e+02 
92.084   4.32000000e+02 
92.048   4.41000000e+02 
92.012   4.57000000e+02 
91.976   4.70000000e+02 
91.940   4.93000000e+02 
91.904   4.89000000e+02 
91.868   5.46000000e+02 
91.832   5.22000000e+02 
91.796   5.27000000e+02 
91.760   6.14000000e+02 
91.724   6.31000000e+02 
91.688   6.26000000e+02 
91.652   6.58000000e+02 
91.616   6.31000000e+02 
91.580   6.55000000e+02 
91.545   6.12000000e+02 
91.509   6.36000000e+02 
91.473   6.09000000e+02 
91.437   6.30000000e+02 
91.401   5.29000000e+02 
91.365   5.71000000e+02 
91.329   5.06000000e+02 
91.293   5.45000000e+02 
91.257   4.36000000e+02 
91.221   4.24000000e+02 
91.185   3.53000000e+02 
91.149   3.56000000e+02 
91.113   3.14000000e+02 
91.077   2.76000000e+02 
91.041   2.41000000e+02 
91.005   2.05000000e+02 
90.970   2.00000000e+02 
90.934   1.74000000e+02 
90.898   1.82000000e+02 
90.862   1.55000000e+02 
90.826   1.17000000e+02 
90.790   1.18000000e+02 
90.754   1.25000000e+02 
90.718   1.09000000e+02 
90.682   1.26000000e+02 
90.646   9.90000000e+01 
90.610   8.70000000e+01 
90.574   1.02000000e+02 
90.538   8.70000000e+01 
90.502   7.80000000e+01 
90.466   7.60000000e+01 
90.430   8.10000000e+01 
90.395   7.70000000e+01 
90.359   7.50000000e+01 
90.323   7.50000000e+01 
90.287   7.50000000e+01 
90.251   7.40000000e+01 
90.215   6.40000000e+01 
90.179   7.20000000e+01 
90.143   7.10000000e+01 
90.107   6.40000000e+01 
90.071   5.60000000e+01 
90.035   7.70000000e+01 
89.999   4.90000000e+01 
89.963   7.00000000e+01 
89.927   5.00000000e+01 
89.891   6.10000000e+01 
89.855   5.70000000e+01 
89.820   7.30000000e+01 
89.784   5.40000000e+01 
89.748   3.60000000e+01 
89.712   5.30000000e+01 
89.676   4.00000000e+01 
89.640   6.40000000e+01 
89.604   4.70000000e+01 
89.568   5.00000000e+01 
89.532   4.70000000e+01 
89.496   6.10000000e+01 
89.460   5.10000000e+01 
89.424   5.40000000e+01 
89.388   4.70000000e+01 
89.352   4.10000000e+01 
89.316   4.60000000e+01 
89.280   4.80000000e+01 
89.245   6.20000000e+01 
89.209   4.30000000e+01 
89.173   6.30000000e+01 
89.137   4.80000000e+01 
89.101   5.70000000e+01 
89.065   4.20000000e+01 
89.029   4.80000000e+01 
88.993   4.40000000e+01 
88.957   4.90000000e+01 
88.921   4.10000000e+01 
88.885   5.50000000e+01 
88.849   3.80000000e+01 
88.813   3.40000000e+01 
88.777   5.20000000e+01 
88.741   5.10000000e+01 
88.705   4.60000000e+01 
88.670   5.20000000e+01 
88.634   3.80000000e+01 
88.598   4.20000000e+01 
88.562   3.70000000e+01 
88.526   4.30000000e+01 
88.490   4.30000000e+01 
88.454   5.70000000e+01 
88.418   3.90000000e+01 
88.382   4.70000000e+01 
88.346   5.40000000e+01 
88.310   4.60000000e+01 
88.274   5.40000000e+01 
88.238   5.40000000e+01 
88.202   4.40000000e+01 
88.166   5.10000000e+01 
88.130   4.30000000e+01 
88.095   4.10000000e+01 
88.059   4.50000000e+01 
88.023   5.40000000e+01 

