EXPERIMENT FILE
Version = 2

[ Experiment Parameters ]
Experiment Description= <none> 
Number_of_Regions_in_Experiment= 1 

Original_File_name= C:\alexesca\data\10222012_Au _4f_59nuetral-39_Mono222.xps 
Instrument= HP ESCA West
Date= 10-22-2012
Time=  14:18:08

[ Layer Parameters ]
Layer_Type= XPS

[ Region 1 Parameters ]
Region_Description = Au 4f Dithered Scan                
BEcenter(eV) = 93.000000
BEwidth(eV) = 10.000000
BEstep(eV) = 0.035937
Dwell_Time(sec) = 1.000000
N_o_scans = 1  
N_o_Channels = 278  
Scan_mode = 0  (DITHERED)

[ L= 1 R= 1 ]
BEcenter= 93.000  
BEwidth= -9.955  
Excitation= 1486.600
Time_p_channel= 256.000 
Size= 278
97.977   6.00000000e+01 
97.941   5.30000000e+01 
97.905   5.60000000e+01 
97.870   5.70000000e+01 
97.834   6.00000000e+01 
97.798   4.60000000e+01 
97.762   6.60000000e+01 
97.726   4.50000000e+01 
97.690   6.10000000e+01 
97.654   6.30000000e+01 
97.618   3.80000000e+01 
97.582   5.20000000e+01 
97.546   4.50000000e+01 
97.510   5.80000000e+01 
97.474   5.90000000e+01 
97.438   4.70000000e+01 
97.402   5.00000000e+01 
97.366   5.20000000e+01 
97.330   5.60000000e+01 
97.295   5.70000000e+01 
97.259   5.40000000e+01 
97.223   5.90000000e+01 
97.187   5.50000000e+01 
97.151   4.10000000e+01 
97.115   5.80000000e+01 
97.079   5.20000000e+01 
97.043   4.80000000e+01 
97.007   4.50000000e+01 
96.971   5.60000000e+01 
96.935   6.60000000e+01 
96.899   7.00000000e+01 
96.863   6.00000000e+01 
96.827   6.30000000e+01 
96.791   7.30000000e+01 
96.755   6.40000000e+01 
96.720   5.50000000e+01 
96.684   6.90000000e+01 
96.648   7.00000000e+01 
96.612   7.20000000e+01 
96.576   7.90000000e+01 
96.540   7.60000000e+01 
96.504   9.40000000e+01 
96.468   6.40000000e+01 
96.432   1.10000000e+02 
96.396   7.30000000e+01 
96.360   9.30000000e+01 
96.324   9.20000000e+01 
96.288   9.70000000e+01 
96.252   1.01000000e+02 
96.216   9.90000000e+01 
96.180   1.07000000e+02 
96.145   9.60000000e+01 
96.109   1.12000000e+02 
96.073   1.07000000e+02 
96.037   1.33000000e+02 
96.001   1.49000000e+02 
95.965   1.30000000e+02 
95.929   1.51000000e+02 
95.893   1.59000000e+02 
95.857   1.42000000e+02 
95.821   1.79000000e+02 
95.785   1.68000000e+02 
95.749   1.90000000e+02 
95.713   1.87000000e+02 
95.677   1.84000000e+02 
95.641   2.10000000e+02 
95.605   1.96000000e+02 
95.570   2.14000000e+02 
95.534   2.40000000e+02 
95.498   2.37000000e+02 
95.462   2.39000000e+02 
95.426   2.87000000e+02 
95.390   2.52000000e+02 
95.354   2.65000000e+02 
95.318   2.69000000e+02 
95.282   2.61000000e+02 
95.246   2.48000000e+02 
95.210   2.60000000e+02 
95.174   2.47000000e+02 
95.138   2.32000000e+02 
95.102   2.26000000e+02 
95.066   2.10000000e+02 
95.030   1.93000000e+02 
94.995   2.14000000e+02 
94.959   1.74000000e+02 
94.923   1.64000000e+02 
94.887   1.59000000e+02 
94.851   1.40000000e+02 
94.815   1.32000000e+02 
94.779   1.30000000e+02 
94.743   1.04000000e+02 
94.707   9.50000000e+01 
94.671   8.50000000e+01 
94.635   9.90000000e+01 
94.599   8.60000000e+01 
94.563   8.60000000e+01 
94.527   8.50000000e+01 
94.491   7.50000000e+01 
94.455   6.90000000e+01 
94.420   6.70000000e+01 
94.384   7.20000000e+01 
94.348   7.30000000e+01 
94.312   4.80000000e+01 
94.276   5.50000000e+01 
94.240   5.20000000e+01 
94.204   6.60000000e+01 
94.168   5.70000000e+01 
94.132   4.90000000e+01 
94.096   5.10000000e+01 
94.060   5.20000000e+01 
94.024   6.60000000e+01 
93.988   6.50000000e+01 
93.952   5.60000000e+01 
93.916   4.60000000e+01 
93.880   3.90000000e+01 
93.845   4.80000000e+01 
93.809   4.70000000e+01 
93.773   5.40000000e+01 
93.737   5.30000000e+01 
93.701   5.50000000e+01 
93.665   5.00000000e+01 
93.629   5.10000000e+01 
93.593   5.10000000e+01 
93.557   3.80000000e+01 
93.521   4.80000000e+01 
93.485   4.10000000e+01 
93.449   3.90000000e+01 
93.413   6.00000000e+01 
93.377   6.40000000e+01 
93.341   5.90000000e+01 
93.305   5.00000000e+01 
93.270   5.20000000e+01 
93.234   5.20000000e+01 
93.198   5.90000000e+01 
93.162   5.20000000e+01 
93.126   5.90000000e+01 
93.090   5.90000000e+01 
93.054   6.30000000e+01 
93.018   5.10000000e+01 
92.982   5.90000000e+01 
92.946   6.80000000e+01 
92.910   7.00000000e+01 
92.874   8.70000000e+01 
92.838   8.30000000e+01 
92.802   6.80000000e+01 
92.766   8.30000000e+01 
92.730   8.00000000e+01 
92.695   8.40000000e+01 
92.659   8.50000000e+01 
92.623   1.14000000e+02 
92.587   1.08000000e+02 
92.551   1.03000000e+02 
92.515   1.04000000e+02 
92.479   1.25000000e+02 
92.443   1.09000000e+02 
92.407   1.27000000e+02 
92.371   1.27000000e+02 
92.335   1.30000000e+02 
92.299   1.62000000e+02 
92.263   1.65000000e+02 
92.227   1.43000000e+02 
92.191   1.77000000e+02 
92.155   1.71000000e+02 
92.120   1.86000000e+02 
92.084   2.35000000e+02 
92.048   2.05000000e+02 
92.012   2.62000000e+02 
91.976   2.23000000e+02 
91.940   2.82000000e+02 
91.904   2.73000000e+02 
91.868   2.53000000e+02 
91.832   2.87000000e+02 
91.796   3.12000000e+02 
91.760   3.14000000e+02 
91.724   3.08000000e+02 
91.688   3.21000000e+02 
91.652   3.08000000e+02 
91.616   3.03000000e+02 
91.580   2.79000000e+02 
91.545   3.29000000e+02 
91.509   2.80000000e+02 
91.473   3.08000000e+02 
91.437   2.95000000e+02 
91.401   2.50000000e+02 
91.365   2.52000000e+02 
91.329   2.19000000e+02 
91.293   2.12000000e+02 
91.257   1.74000000e+02 
91.221   1.75000000e+02 
91.185   1.53000000e+02 
91.149   1.37000000e+02 
91.113   1.40000000e+02 
91.077   1.15000000e+02 
91.041   9.50000000e+01 
91.005   1.12000000e+02 
90.970   9.80000000e+01 
90.934   9.20000000e+01 
90.898   7.40000000e+01 
90.862   6.50000000e+01 
90.826   6.40000000e+01 
90.790   5.50000000e+01 
90.754   6.20000000e+01 
90.718   4.40000000e+01 
90.682   6.60000000e+01 
90.646   4.60000000e+01 
90.610   4.90000000e+01 
90.574   5.20000000e+01 
90.538   4.50000000e+01 
90.502   5.40000000e+01 
90.466   3.70000000e+01 
90.430   3.70000000e+01 
90.395   4.00000000e+01 
90.359   3.00000000e+01 
90.323   3.00000000e+01 
90.287   2.30000000e+01 
90.251   4.30000000e+01 
90.215   3.60000000e+01 
90.179   3.90000000e+01 
90.143   2.90000000e+01 
90.107   4.40000000e+01 
90.071   3.30000000e+01 
90.035   4.10000000e+01 
89.999   3.70000000e+01 
89.963   3.90000000e+01 
89.927   2.70000000e+01 
89.891   2.90000000e+01 
89.855   2.60000000e+01 
89.820   3.50000000e+01 
89.784   2.80000000e+01 
89.748   2.80000000e+01 
89.712   3.00000000e+01 
89.676   2.30000000e+01 
89.640   2.50000000e+01 
89.604   2.50000000e+01 
89.568   2.80000000e+01 
89.532   3.30000000e+01 
89.496   2.90000000e+01 
89.460   2.80000000e+01 
89.424   3.10000000e+01 
89.388   3.40000000e+01 
89.352   2.60000000e+01 
89.316   2.70000000e+01 
89.280   2.70000000e+01 
89.245   2.00000000e+01 
89.209   2.10000000e+01 
89.173   2.30000000e+01 
89.137   2.50000000e+01 
89.101   2.90000000e+01 
89.065   2.40000000e+01 
89.029   1.70000000e+01 
88.993   2.30000000e+01 
88.957   3.80000000e+01 
88.921   3.30000000e+01 
88.885   2.40000000e+01 
88.849   2.60000000e+01 
88.813   3.20000000e+01 
88.777   3.30000000e+01 
88.741   2.70000000e+01 
88.705   2.50000000e+01 
88.670   2.70000000e+01 
88.634   2.50000000e+01 
88.598   3.10000000e+01 
88.562   2.60000000e+01 
88.526   2.60000000e+01 
88.490   2.50000000e+01 
88.454   2.40000000e+01 
88.418   3.10000000e+01 
88.382   3.00000000e+01 
88.346   2.40000000e+01 
88.310   2.10000000e+01 
88.274   1.70000000e+01 
88.238   1.90000000e+01 
88.202   3.30000000e+01 
88.166   3.30000000e+01 
88.130   2.30000000e+01 
88.095   2.30000000e+01 
88.059   2.40000000e+01 
88.023   2.80000000e+01 

