EXPERIMENT FILE
Version = 2

[ Experiment Parameters ]
Experiment Description= <none> 
Number_of_Regions_in_Experiment= 1 

Original_File_name= C:\alexesca\data\10232012_Au _4f_68nuetral-38_Mono222.xps 
Instrument= HP ESCA West
Date= 10-23-2012
Time=  15:47:59

[ Layer Parameters ]
Layer_Type= XPS

[ Region 1 Parameters ]
Region_Description = Au 4f Dithered Scan                
BEcenter(eV) = 93.000000
BEwidth(eV) = 10.000000
BEstep(eV) = 0.035937
Dwell_Time(sec) = 1.000000
N_o_scans = 1  
N_o_Channels = 278  
Scan_mode = 0  (DITHERED)

[ L= 1 R= 1 ]
BEcenter= 93.000  
BEwidth= -9.955  
Excitation= 1486.600
Time_p_channel= 256.000 
Size= 278
97.977   4.80000000e+01 
97.941   4.30000000e+01 
97.905   5.90000000e+01 
97.870   4.50000000e+01 
97.834   5.80000000e+01 
97.798   5.80000000e+01 
97.762   5.20000000e+01 
97.726   4.50000000e+01 
97.690   5.50000000e+01 
97.654   5.80000000e+01 
97.618   5.70000000e+01 
97.582   6.80000000e+01 
97.546   4.70000000e+01 
97.510   5.60000000e+01 
97.474   5.00000000e+01 
97.438   5.70000000e+01 
97.402   4.30000000e+01 
97.366   4.30000000e+01 
97.330   5.40000000e+01 
97.295   5.50000000e+01 
97.259   4.80000000e+01 
97.223   4.10000000e+01 
97.187   5.90000000e+01 
97.151   5.30000000e+01 
97.115   5.50000000e+01 
97.079   4.80000000e+01 
97.043   7.10000000e+01 
97.007   5.40000000e+01 
96.971   5.60000000e+01 
96.935   5.90000000e+01 
96.899   5.80000000e+01 
96.863   6.30000000e+01 
96.827   5.90000000e+01 
96.791   6.00000000e+01 
96.755   6.40000000e+01 
96.720   5.60000000e+01 
96.684   6.40000000e+01 
96.648   6.10000000e+01 
96.612   7.90000000e+01 
96.576   7.20000000e+01 
96.540   7.30000000e+01 
96.504   8.10000000e+01 
96.468   7.50000000e+01 
96.432   8.60000000e+01 
96.396   7.90000000e+01 
96.360   9.30000000e+01 
96.324   9.80000000e+01 
96.288   9.20000000e+01 
96.252   8.40000000e+01 
96.216   9.70000000e+01 
96.180   9.40000000e+01 
96.145   1.04000000e+02 
96.109   1.21000000e+02 
96.073   1.02000000e+02 
96.037   1.46000000e+02 
96.001   1.59000000e+02 
95.965   1.34000000e+02 
95.929   1.43000000e+02 
95.893   1.68000000e+02 
95.857   1.71000000e+02 
95.821   1.79000000e+02 
95.785   1.84000000e+02 
95.749   2.03000000e+02 
95.713   1.75000000e+02 
95.677   1.89000000e+02 
95.641   2.05000000e+02 
95.605   2.12000000e+02 
95.570   2.70000000e+02 
95.534   2.21000000e+02 
95.498   2.51000000e+02 
95.462   2.45000000e+02 
95.426   2.60000000e+02 
95.390   2.35000000e+02 
95.354   2.61000000e+02 
95.318   2.44000000e+02 
95.282   2.61000000e+02 
95.246   2.36000000e+02 
95.210   2.32000000e+02 
95.174   2.50000000e+02 
95.138   2.44000000e+02 
95.102   2.08000000e+02 
95.066   1.93000000e+02 
95.030   1.79000000e+02 
94.995   1.76000000e+02 
94.959   1.64000000e+02 
94.923   1.44000000e+02 
94.887   1.41000000e+02 
94.851   1.26000000e+02 
94.815   1.24000000e+02 
94.779   1.08000000e+02 
94.743   1.05000000e+02 
94.707   1.08000000e+02 
94.671   8.40000000e+01 
94.635   8.10000000e+01 
94.599   8.70000000e+01 
94.563   7.70000000e+01 
94.527   7.90000000e+01 
94.491   6.10000000e+01 
94.455   6.30000000e+01 
94.420   5.70000000e+01 
94.384   4.60000000e+01 
94.348   5.40000000e+01 
94.312   5.10000000e+01 
94.276   4.80000000e+01 
94.240   6.00000000e+01 
94.204   5.90000000e+01 
94.168   5.30000000e+01 
94.132   4.90000000e+01 
94.096   6.00000000e+01 
94.060   5.00000000e+01 
94.024   5.60000000e+01 
93.988   4.60000000e+01 
93.952   4.80000000e+01 
93.916   5.70000000e+01 
93.880   4.70000000e+01 
93.845   5.30000000e+01 
93.809   6.20000000e+01 
93.773   5.70000000e+01 
93.737   5.80000000e+01 
93.701   5.00000000e+01 
93.665   5.10000000e+01 
93.629   4.40000000e+01 
93.593   5.40000000e+01 
93.557   5.00000000e+01 
93.521   4.20000000e+01 
93.485   5.40000000e+01 
93.449   3.60000000e+01 
93.413   4.60000000e+01 
93.377   5.10000000e+01 
93.341   4.60000000e+01 
93.305   6.30000000e+01 
93.270   4.60000000e+01 
93.234   5.20000000e+01 
93.198   5.30000000e+01 
93.162   5.90000000e+01 
93.126   5.10000000e+01 
93.090   5.50000000e+01 
93.054   6.70000000e+01 
93.018   5.10000000e+01 
92.982   6.30000000e+01 
92.946   6.50000000e+01 
92.910   7.30000000e+01 
92.874   6.80000000e+01 
92.838   8.60000000e+01 
92.802   8.30000000e+01 
92.766   8.60000000e+01 
92.730   9.90000000e+01 
92.695   9.10000000e+01 
92.659   1.08000000e+02 
92.623   8.90000000e+01 
92.587   1.12000000e+02 
92.551   1.27000000e+02 
92.515   1.08000000e+02 
92.479   1.27000000e+02 
92.443   1.22000000e+02 
92.407   1.43000000e+02 
92.371   1.47000000e+02 
92.335   1.68000000e+02 
92.299   1.52000000e+02 
92.263   1.73000000e+02 
92.227   1.62000000e+02 
92.191   1.94000000e+02 
92.155   2.06000000e+02 
92.120   2.10000000e+02 
92.084   2.21000000e+02 
92.048   2.23000000e+02 
92.012   2.58000000e+02 
91.976   2.44000000e+02 
91.940   3.05000000e+02 
91.904   2.63000000e+02 
91.868   2.83000000e+02 
91.832   3.05000000e+02 
91.796   3.10000000e+02 
91.760   2.84000000e+02 
91.724   3.22000000e+02 
91.688   3.04000000e+02 
91.652   3.37000000e+02 
91.616   2.85000000e+02 
91.580   2.72000000e+02 
91.545   2.87000000e+02 
91.509   3.13000000e+02 
91.473   2.65000000e+02 
91.437   2.60000000e+02 
91.401   2.19000000e+02 
91.365   2.24000000e+02 
91.329   2.14000000e+02 
91.293   1.72000000e+02 
91.257   1.72000000e+02 
91.221   1.58000000e+02 
91.185   1.39000000e+02 
91.149   1.28000000e+02 
91.113   9.00000000e+01 
91.077   1.03000000e+02 
91.041   9.90000000e+01 
91.005   6.90000000e+01 
90.970   7.10000000e+01 
90.934   8.30000000e+01 
90.898   5.60000000e+01 
90.862   5.70000000e+01 
90.826   6.40000000e+01 
90.790   4.70000000e+01 
90.754   4.30000000e+01 
90.718   3.80000000e+01 
90.682   4.20000000e+01 
90.646   4.60000000e+01 
90.610   4.60000000e+01 
90.574   4.00000000e+01 
90.538   3.80000000e+01 
90.502   4.80000000e+01 
90.466   4.10000000e+01 
90.430   2.50000000e+01 
90.395   3.30000000e+01 
90.359   3.70000000e+01 
90.323   3.90000000e+01 
90.287   3.10000000e+01 
90.251   3.50000000e+01 
90.215   3.30000000e+01 
90.179   3.10000000e+01 
90.143   3.70000000e+01 
90.107   2.90000000e+01 
90.071   2.80000000e+01 
90.035   3.10000000e+01 
89.999   2.50000000e+01 
89.963   3.50000000e+01 
89.927   3.40000000e+01 
89.891   3.80000000e+01 
89.855   2.60000000e+01 
89.820   3.00000000e+01 
89.784   4.20000000e+01 
89.748   2.80000000e+01 
89.712   2.10000000e+01 
89.676   3.00000000e+01 
89.640   3.10000000e+01 
89.604   2.50000000e+01 
89.568   2.80000000e+01 
89.532   3.10000000e+01 
89.496   2.50000000e+01 
89.460   3.00000000e+01 
89.424   2.60000000e+01 
89.388   3.60000000e+01 
89.352   2.00000000e+01 
89.316   2.60000000e+01 
89.280   2.70000000e+01 
89.245   3.00000000e+01 
89.209   2.80000000e+01 
89.173   2.90000000e+01 
89.137   2.40000000e+01 
89.101   3.20000000e+01 
89.065   2.50000000e+01 
89.029   1.60000000e+01 
88.993   2.40000000e+01 
88.957   2.80000000e+01 
88.921   2.60000000e+01 
88.885   2.70000000e+01 
88.849   1.80000000e+01 
88.813   2.70000000e+01 
88.777   2.80000000e+01 
88.741   2.20000000e+01 
88.705   3.00000000e+01 
88.670   2.60000000e+01 
88.634   3.10000000e+01 
88.598   2.90000000e+01 
88.562   2.70000000e+01 
88.526   1.80000000e+01 
88.490   2.50000000e+01 
88.454   1.50000000e+01 
88.418   1.50000000e+01 
88.382   2.20000000e+01 
88.346   2.70000000e+01 
88.310   2.30000000e+01 
88.274   1.20000000e+01 
88.238   1.80000000e+01 
88.202   3.10000000e+01 
88.166   3.00000000e+01 
88.130   2.00000000e+01 
88.095   1.90000000e+01 
88.059   2.30000000e+01 
88.023   2.30000000e+01 

