EXPERIMENT FILE
Version = 2

[ Experiment Parameters ]
Experiment Description= <none> 
Number_of_Regions_in_Experiment= 1 

Original_File_name= C:\alexesca\data\10232012_Au _4f_68nuetral-6_Mono222.xps 
Instrument= HP ESCA West
Date= 10-23-2012
Time=  17:36:19

[ Layer Parameters ]
Layer_Type= XPS

[ Region 1 Parameters ]
Region_Description = Au 4f Dithered Scan                
BEcenter(eV) = 93.000000
BEwidth(eV) = 10.000000
BEstep(eV) = 0.035937
Dwell_Time(sec) = 1.000000
N_o_scans = 1  
N_o_Channels = 278  
Scan_mode = 0  (DITHERED)

[ L= 1 R= 1 ]
BEcenter= 93.000  
BEwidth= -9.955  
Excitation= 1486.600
Time_p_channel= 256.000 
Size= 278
97.977   2.90000000e+02 
97.941   2.83000000e+02 
97.905   2.97000000e+02 
97.870   2.86000000e+02 
97.834   2.82000000e+02 
97.798   2.61000000e+02 
97.762   2.68000000e+02 
97.726   2.81000000e+02 
97.690   2.80000000e+02 
97.654   3.32000000e+02 
97.618   2.71000000e+02 
97.582   2.90000000e+02 
97.546   2.71000000e+02 
97.510   2.98000000e+02 
97.474   3.07000000e+02 
97.438   3.18000000e+02 
97.402   3.26000000e+02 
97.366   2.99000000e+02 
97.330   2.86000000e+02 
97.295   3.40000000e+02 
97.259   3.03000000e+02 
97.223   2.94000000e+02 
97.187   2.95000000e+02 
97.151   3.07000000e+02 
97.115   3.17000000e+02 
97.079   3.14000000e+02 
97.043   3.37000000e+02 
97.007   3.29000000e+02 
96.971   3.73000000e+02 
96.935   3.56000000e+02 
96.899   3.23000000e+02 
96.863   3.55000000e+02 
96.827   3.36000000e+02 
96.791   3.63000000e+02 
96.755   3.84000000e+02 
96.720   3.46000000e+02 
96.684   4.14000000e+02 
96.648   4.01000000e+02 
96.612   4.26000000e+02 
96.576   4.29000000e+02 
96.540   4.52000000e+02 
96.504   4.70000000e+02 
96.468   4.42000000e+02 
96.432   4.86000000e+02 
96.396   4.81000000e+02 
96.360   5.15000000e+02 
96.324   4.90000000e+02 
96.288   5.04000000e+02 
96.252   5.55000000e+02 
96.216   5.40000000e+02 
96.180   5.84000000e+02 
96.145   6.39000000e+02 
96.109   6.29000000e+02 
96.073   6.52000000e+02 
96.037   6.93000000e+02 
96.001   6.70000000e+02 
95.965   7.37000000e+02 
95.929   7.69000000e+02 
95.893   8.17000000e+02 
95.857   8.57000000e+02 
95.821   8.29000000e+02 
95.785   9.35000000e+02 
95.749   9.46000000e+02 
95.713   9.61000000e+02 
95.677   9.81000000e+02 
95.641   1.09200000e+03 
95.605   1.15300000e+03 
95.570   1.12800000e+03 
95.534   1.13000000e+03 
95.498   1.25900000e+03 
95.462   1.25000000e+03 
95.426   1.29800000e+03 
95.390   1.30800000e+03 
95.354   1.37200000e+03 
95.318   1.39800000e+03 
95.282   1.47700000e+03 
95.246   1.48500000e+03 
95.210   1.55200000e+03 
95.174   1.49600000e+03 
95.138   1.57600000e+03 
95.102   1.54800000e+03 
95.066   1.50900000e+03 
95.030   1.49500000e+03 
94.995   1.42600000e+03 
94.959   1.44400000e+03 
94.923   1.37500000e+03 
94.887   1.34600000e+03 
94.851   1.31200000e+03 
94.815   1.20000000e+03 
94.779   1.12400000e+03 
94.743   1.03700000e+03 
94.707   9.81000000e+02 
94.671   8.96000000e+02 
94.635   7.70000000e+02 
94.599   7.59000000e+02 
94.563   6.39000000e+02 
94.527   6.08000000e+02 
94.491   5.90000000e+02 
94.455   5.21000000e+02 
94.420   4.75000000e+02 
94.384   4.22000000e+02 
94.348   4.35000000e+02 
94.312   4.55000000e+02 
94.276   3.97000000e+02 
94.240   3.75000000e+02 
94.204   3.38000000e+02 
94.168   3.49000000e+02 
94.132   3.68000000e+02 
94.096   3.41000000e+02 
94.060   3.24000000e+02 
94.024   3.12000000e+02 
93.988   3.28000000e+02 
93.952   2.75000000e+02 
93.916   3.05000000e+02 
93.880   3.27000000e+02 
93.845   2.92000000e+02 
93.809   3.01000000e+02 
93.773   2.67000000e+02 
93.737   2.70000000e+02 
93.701   3.01000000e+02 
93.665   3.22000000e+02 
93.629   3.37000000e+02 
93.593   2.86000000e+02 
93.557   2.95000000e+02 
93.521   3.27000000e+02 
93.485   3.13000000e+02 
93.449   3.10000000e+02 
93.413   2.68000000e+02 
93.377   3.28000000e+02 
93.341   3.32000000e+02 
93.305   3.40000000e+02 
93.270   3.47000000e+02 
93.234   3.66000000e+02 
93.198   3.37000000e+02 
93.162   3.42000000e+02 
93.126   3.10000000e+02 
93.090   3.79000000e+02 
93.054   3.99000000e+02 
93.018   3.89000000e+02 
92.982   4.13000000e+02 
92.946   4.01000000e+02 
92.910   4.28000000e+02 
92.874   4.23000000e+02 
92.838   4.51000000e+02 
92.802   4.68000000e+02 
92.766   4.86000000e+02 
92.730   4.94000000e+02 
92.695   5.75000000e+02 
92.659   5.16000000e+02 
92.623   5.50000000e+02 
92.587   5.69000000e+02 
92.551   5.93000000e+02 
92.515   6.16000000e+02 
92.479   6.57000000e+02 
92.443   7.00000000e+02 
92.407   7.39000000e+02 
92.371   7.59000000e+02 
92.335   7.49000000e+02 
92.299   8.51000000e+02 
92.263   9.03000000e+02 
92.227   9.33000000e+02 
92.191   1.00300000e+03 
92.155   9.85000000e+02 
92.120   1.04500000e+03 
92.084   1.08100000e+03 
92.048   1.13600000e+03 
92.012   1.24300000e+03 
91.976   1.25900000e+03 
91.940   1.21000000e+03 
91.904   1.34300000e+03 
91.868   1.38900000e+03 
91.832   1.41300000e+03 
91.796   1.42500000e+03 
91.760   1.56400000e+03 
91.724   1.65600000e+03 
91.688   1.67700000e+03 
91.652   1.80300000e+03 
91.616   1.73500000e+03 
91.580   1.73400000e+03 
91.545   1.79000000e+03 
91.509   1.83200000e+03 
91.473   1.90000000e+03 
91.437   1.96100000e+03 
91.401   1.91200000e+03 
91.365   1.89700000e+03 
91.329   1.78700000e+03 
91.293   1.80500000e+03 
91.257   1.74800000e+03 
91.221   1.62200000e+03 
91.185   1.49100000e+03 
91.149   1.35500000e+03 
91.113   1.32900000e+03 
91.077   1.21900000e+03 
91.041   1.07200000e+03 
91.005   9.97000000e+02 
90.970   9.44000000e+02 
90.934   8.30000000e+02 
90.898   7.22000000e+02 
90.862   6.35000000e+02 
90.826   5.62000000e+02 
90.790   4.94000000e+02 
90.754   4.28000000e+02 
90.718   3.89000000e+02 
90.682   4.13000000e+02 
90.646   3.39000000e+02 
90.610   3.46000000e+02 
90.574   3.11000000e+02 
90.538   2.75000000e+02 
90.502   2.82000000e+02 
90.466   2.75000000e+02 
90.430   2.12000000e+02 
90.395   2.11000000e+02 
90.359   2.33000000e+02 
90.323   2.20000000e+02 
90.287   2.03000000e+02 
90.251   2.08000000e+02 
90.215   2.07000000e+02 
90.179   1.84000000e+02 
90.143   1.85000000e+02 
90.107   1.53000000e+02 
90.071   1.72000000e+02 
90.035   1.69000000e+02 
89.999   1.48000000e+02 
89.963   1.64000000e+02 
89.927   1.58000000e+02 
89.891   1.76000000e+02 
89.855   1.58000000e+02 
89.820   1.63000000e+02 
89.784   1.44000000e+02 
89.748   1.39000000e+02 
89.712   1.41000000e+02 
89.676   1.45000000e+02 
89.640   1.81000000e+02 
89.604   1.43000000e+02 
89.568   1.10000000e+02 
89.532   1.50000000e+02 
89.496   1.46000000e+02 
89.460   1.20000000e+02 
89.424   1.26000000e+02 
89.388   1.45000000e+02 
89.352   1.47000000e+02 
89.316   1.31000000e+02 
89.280   1.36000000e+02 
89.245   1.27000000e+02 
89.209   1.17000000e+02 
89.173   1.25000000e+02 
89.137   1.27000000e+02 
89.101   1.40000000e+02 
89.065   1.16000000e+02 
89.029   1.29000000e+02 
88.993   1.10000000e+02 
88.957   1.08000000e+02 
88.921   1.25000000e+02 
88.885   1.07000000e+02 
88.849   1.17000000e+02 
88.813   1.24000000e+02 
88.777   1.06000000e+02 
88.741   1.07000000e+02 
88.705   1.09000000e+02 
88.670   1.04000000e+02 
88.634   9.80000000e+01 
88.598   1.03000000e+02 
88.562   1.19000000e+02 
88.526   1.17000000e+02 
88.490   1.16000000e+02 
88.454   9.40000000e+01 
88.418   1.06000000e+02 
88.382   1.06000000e+02 
88.346   1.10000000e+02 
88.310   1.03000000e+02 
88.274   1.11000000e+02 
88.238   1.19000000e+02 
88.202   1.22000000e+02 
88.166   1.02000000e+02 
88.130   1.08000000e+02 
88.095   1.25000000e+02 
88.059   1.14000000e+02 
88.023   1.24000000e+02 

