EXPERIMENT FILE
Version = 2

[ Experiment Parameters ]
Experiment Description= <none> 
Number_of_Regions_in_Experiment= 1 

Original_File_name= C:\alexesca\data\10232012_Au _4f_68nuetral-36_Mono210.xps 
Instrument= HP ESCA West
Date= 10-23-2012
Time=  17:13:53

[ Layer Parameters ]
Layer_Type= XPS

[ Region 1 Parameters ]
Region_Description = Au 4f Dithered Scan                
BEcenter(eV) = 93.000000
BEwidth(eV) = 10.000000
BEstep(eV) = 0.035937
Dwell_Time(sec) = 1.000000
N_o_scans = 1  
N_o_Channels = 278  
Scan_mode = 0  (DITHERED)

[ L= 1 R= 1 ]
BEcenter= 93.000  
BEwidth= -9.955  
Excitation= 1486.600
Time_p_channel= 256.000 
Size= 278
97.977   4.40000000e+01 
97.941   5.60000000e+01 
97.905   4.80000000e+01 
97.870   4.70000000e+01 
97.834   5.90000000e+01 
97.798   5.40000000e+01 
97.762   6.00000000e+01 
97.726   5.60000000e+01 
97.690   6.10000000e+01 
97.654   5.30000000e+01 
97.618   6.70000000e+01 
97.582   4.90000000e+01 
97.546   5.50000000e+01 
97.510   5.00000000e+01 
97.474   6.00000000e+01 
97.438   5.10000000e+01 
97.402   5.90000000e+01 
97.366   7.00000000e+01 
97.330   6.40000000e+01 
97.295   5.10000000e+01 
97.259   4.60000000e+01 
97.223   4.80000000e+01 
97.187   6.00000000e+01 
97.151   6.00000000e+01 
97.115   5.20000000e+01 
97.079   5.70000000e+01 
97.043   5.60000000e+01 
97.007   5.50000000e+01 
96.971   6.20000000e+01 
96.935   4.70000000e+01 
96.899   5.20000000e+01 
96.863   4.10000000e+01 
96.827   4.80000000e+01 
96.791   5.30000000e+01 
96.755   5.80000000e+01 
96.720   7.40000000e+01 
96.684   5.80000000e+01 
96.648   6.30000000e+01 
96.612   6.80000000e+01 
96.576   6.80000000e+01 
96.540   7.10000000e+01 
96.504   5.80000000e+01 
96.468   6.20000000e+01 
96.432   7.50000000e+01 
96.396   8.50000000e+01 
96.360   7.40000000e+01 
96.324   7.50000000e+01 
96.288   7.50000000e+01 
96.252   6.90000000e+01 
96.216   8.80000000e+01 
96.180   7.90000000e+01 
96.145   9.20000000e+01 
96.109   7.70000000e+01 
96.073   8.70000000e+01 
96.037   7.10000000e+01 
96.001   9.70000000e+01 
95.965   9.40000000e+01 
95.929   1.15000000e+02 
95.893   9.20000000e+01 
95.857   1.28000000e+02 
95.821   1.16000000e+02 
95.785   1.09000000e+02 
95.749   1.35000000e+02 
95.713   1.21000000e+02 
95.677   1.49000000e+02 
95.641   1.67000000e+02 
95.605   1.60000000e+02 
95.570   1.66000000e+02 
95.534   1.82000000e+02 
95.498   2.05000000e+02 
95.462   2.02000000e+02 
95.426   1.91000000e+02 
95.390   2.09000000e+02 
95.354   2.22000000e+02 
95.318   2.18000000e+02 
95.282   2.55000000e+02 
95.246   2.57000000e+02 
95.210   2.77000000e+02 
95.174   2.87000000e+02 
95.138   2.67000000e+02 
95.102   2.86000000e+02 
95.066   2.92000000e+02 
95.030   2.95000000e+02 
94.995   3.21000000e+02 
94.959   2.93000000e+02 
94.923   2.90000000e+02 
94.887   2.68000000e+02 
94.851   2.73000000e+02 
94.815   2.44000000e+02 
94.779   2.27000000e+02 
94.743   1.95000000e+02 
94.707   2.07000000e+02 
94.671   1.80000000e+02 
94.635   1.55000000e+02 
94.599   1.46000000e+02 
94.563   1.40000000e+02 
94.527   1.39000000e+02 
94.491   1.15000000e+02 
94.455   1.13000000e+02 
94.420   1.13000000e+02 
94.384   9.50000000e+01 
94.348   1.07000000e+02 
94.312   8.30000000e+01 
94.276   7.90000000e+01 
94.240   9.70000000e+01 
94.204   7.80000000e+01 
94.168   1.00000000e+02 
94.132   7.20000000e+01 
94.096   6.70000000e+01 
94.060   8.40000000e+01 
94.024   5.30000000e+01 
93.988   6.30000000e+01 
93.952   6.40000000e+01 
93.916   7.20000000e+01 
93.880   6.20000000e+01 
93.845   4.40000000e+01 
93.809   6.10000000e+01 
93.773   5.90000000e+01 
93.737   5.80000000e+01 
93.701   5.90000000e+01 
93.665   6.70000000e+01 
93.629   6.60000000e+01 
93.593   6.70000000e+01 
93.557   5.80000000e+01 
93.521   5.90000000e+01 
93.485   5.60000000e+01 
93.449   5.50000000e+01 
93.413   5.90000000e+01 
93.377   4.80000000e+01 
93.341   4.50000000e+01 
93.305   4.60000000e+01 
93.270   5.10000000e+01 
93.234   4.70000000e+01 
93.198   5.30000000e+01 
93.162   5.20000000e+01 
93.126   5.20000000e+01 
93.090   4.90000000e+01 
93.054   5.40000000e+01 
93.018   5.50000000e+01 
92.982   5.40000000e+01 
92.946   7.00000000e+01 
92.910   5.40000000e+01 
92.874   6.40000000e+01 
92.838   7.50000000e+01 
92.802   6.60000000e+01 
92.766   6.90000000e+01 
92.730   6.90000000e+01 
92.695   6.90000000e+01 
92.659   6.80000000e+01 
92.623   5.80000000e+01 
92.587   6.80000000e+01 
92.551   7.40000000e+01 
92.515   7.10000000e+01 
92.479   7.30000000e+01 
92.443   9.70000000e+01 
92.407   9.00000000e+01 
92.371   1.05000000e+02 
92.335   9.70000000e+01 
92.299   1.21000000e+02 
92.263   1.05000000e+02 
92.227   1.17000000e+02 
92.191   1.22000000e+02 
92.155   1.44000000e+02 
92.120   1.35000000e+02 
92.084   1.53000000e+02 
92.048   1.50000000e+02 
92.012   1.45000000e+02 
91.976   1.74000000e+02 
91.940   1.89000000e+02 
91.904   1.88000000e+02 
91.868   2.08000000e+02 
91.832   2.06000000e+02 
91.796   2.38000000e+02 
91.760   2.34000000e+02 
91.724   2.72000000e+02 
91.688   2.79000000e+02 
91.652   2.73000000e+02 
91.616   2.68000000e+02 
91.580   2.79000000e+02 
91.545   2.97000000e+02 
91.509   3.39000000e+02 
91.473   3.34000000e+02 
91.437   3.66000000e+02 
91.401   3.31000000e+02 
91.365   3.65000000e+02 
91.329   3.48000000e+02 
91.293   3.31000000e+02 
91.257   3.44000000e+02 
91.221   3.48000000e+02 
91.185   3.27000000e+02 
91.149   3.10000000e+02 
91.113   2.47000000e+02 
91.077   2.58000000e+02 
91.041   2.65000000e+02 
91.005   2.21000000e+02 
90.970   1.78000000e+02 
90.934   1.55000000e+02 
90.898   1.57000000e+02 
90.862   1.54000000e+02 
90.826   1.24000000e+02 
90.790   1.22000000e+02 
90.754   1.07000000e+02 
90.718   1.08000000e+02 
90.682   1.01000000e+02 
90.646   7.90000000e+01 
90.610   7.00000000e+01 
90.574   6.80000000e+01 
90.538   5.70000000e+01 
90.502   5.20000000e+01 
90.466   5.90000000e+01 
90.430   4.10000000e+01 
90.395   6.20000000e+01 
90.359   5.30000000e+01 
90.323   4.60000000e+01 
90.287   4.70000000e+01 
90.251   5.40000000e+01 
90.215   4.60000000e+01 
90.179   3.00000000e+01 
90.143   4.20000000e+01 
90.107   5.00000000e+01 
90.071   5.30000000e+01 
90.035   4.80000000e+01 
89.999   3.80000000e+01 
89.963   4.30000000e+01 
89.927   2.20000000e+01 
89.891   4.20000000e+01 
89.855   4.10000000e+01 
89.820   3.30000000e+01 
89.784   3.30000000e+01 
89.748   2.70000000e+01 
89.712   3.80000000e+01 
89.676   2.30000000e+01 
89.640   2.60000000e+01 
89.604   2.80000000e+01 
89.568   3.20000000e+01 
89.532   3.70000000e+01 
89.496   3.80000000e+01 
89.460   3.40000000e+01 
89.424   3.30000000e+01 
89.388   4.30000000e+01 
89.352   3.10000000e+01 
89.316   3.40000000e+01 
89.280   2.50000000e+01 
89.245   2.50000000e+01 
89.209   3.50000000e+01 
89.173   2.40000000e+01 
89.137   2.30000000e+01 
89.101   3.00000000e+01 
89.065   3.50000000e+01 
89.029   2.30000000e+01 
88.993   3.00000000e+01 
88.957   3.30000000e+01 
88.921   3.20000000e+01 
88.885   3.30000000e+01 
88.849   2.40000000e+01 
88.813   2.40000000e+01 
88.777   3.00000000e+01 
88.741   3.10000000e+01 
88.705   4.30000000e+01 
88.670   3.60000000e+01 
88.634   2.80000000e+01 
88.598   2.80000000e+01 
88.562   2.20000000e+01 
88.526   3.30000000e+01 
88.490   3.30000000e+01 
88.454   3.20000000e+01 
88.418   2.20000000e+01 
88.382   3.70000000e+01 
88.346   2.10000000e+01 
88.310   2.90000000e+01 
88.274   2.30000000e+01 
88.238   2.00000000e+01 
88.202   2.90000000e+01 
88.166   2.90000000e+01 
88.130   1.80000000e+01 
88.095   3.20000000e+01 
88.059   2.20000000e+01 
88.023   2.70000000e+01 

