EXPERIMENT FILE
Version = 2

[ Experiment Parameters ]
Experiment Description= <none> 
Number_of_Regions_in_Experiment= 1 

Original_File_name= C:\alexesca\data\10232012_Au _4f_68nuetral-28_Mono222.xps 
Instrument= HP ESCA West
Date= 10-23-2012
Time=  16:06:21

[ Layer Parameters ]
Layer_Type= XPS

[ Region 1 Parameters ]
Region_Description = Au 4f Dithered Scan                
BEcenter(eV) = 93.000000
BEwidth(eV) = 10.000000
BEstep(eV) = 0.035937
Dwell_Time(sec) = 1.000000
N_o_scans = 1  
N_o_Channels = 278  
Scan_mode = 0  (DITHERED)

[ L= 1 R= 1 ]
BEcenter= 93.000  
BEwidth= -9.955  
Excitation= 1486.600
Time_p_channel= 256.000 
Size= 278
97.977   9.30000000e+01 
97.941   8.70000000e+01 
97.905   1.07000000e+02 
97.870   1.06000000e+02 
97.834   1.10000000e+02 
97.798   1.07000000e+02 
97.762   1.11000000e+02 
97.726   9.80000000e+01 
97.690   9.40000000e+01 
97.654   1.12000000e+02 
97.618   1.16000000e+02 
97.582   1.25000000e+02 
97.546   1.08000000e+02 
97.510   1.14000000e+02 
97.474   1.10000000e+02 
97.438   9.70000000e+01 
97.402   1.19000000e+02 
97.366   1.04000000e+02 
97.330   1.06000000e+02 
97.295   1.14000000e+02 
97.259   1.11000000e+02 
97.223   1.14000000e+02 
97.187   1.15000000e+02 
97.151   1.42000000e+02 
97.115   1.33000000e+02 
97.079   1.09000000e+02 
97.043   1.09000000e+02 
97.007   1.14000000e+02 
96.971   9.80000000e+01 
96.935   1.43000000e+02 
96.899   1.32000000e+02 
96.863   1.21000000e+02 
96.827   1.20000000e+02 
96.791   1.41000000e+02 
96.755   1.55000000e+02 
96.720   1.40000000e+02 
96.684   1.47000000e+02 
96.648   1.49000000e+02 
96.612   1.58000000e+02 
96.576   1.41000000e+02 
96.540   1.71000000e+02 
96.504   1.64000000e+02 
96.468   1.65000000e+02 
96.432   1.96000000e+02 
96.396   1.86000000e+02 
96.360   2.14000000e+02 
96.324   2.08000000e+02 
96.288   1.73000000e+02 
96.252   1.95000000e+02 
96.216   2.62000000e+02 
96.180   2.32000000e+02 
96.145   2.41000000e+02 
96.109   2.45000000e+02 
96.073   2.62000000e+02 
96.037   2.77000000e+02 
96.001   2.79000000e+02 
95.965   3.17000000e+02 
95.929   3.19000000e+02 
95.893   3.23000000e+02 
95.857   3.19000000e+02 
95.821   3.87000000e+02 
95.785   3.92000000e+02 
95.749   4.13000000e+02 
95.713   4.25000000e+02 
95.677   4.42000000e+02 
95.641   4.63000000e+02 
95.605   4.94000000e+02 
95.570   5.10000000e+02 
95.534   5.02000000e+02 
95.498   5.12000000e+02 
95.462   5.32000000e+02 
95.426   5.08000000e+02 
95.390   4.99000000e+02 
95.354   5.39000000e+02 
95.318   5.34000000e+02 
95.282   6.01000000e+02 
95.246   5.11000000e+02 
95.210   5.21000000e+02 
95.174   4.84000000e+02 
95.138   4.63000000e+02 
95.102   4.52000000e+02 
95.066   4.04000000e+02 
95.030   3.89000000e+02 
94.995   3.63000000e+02 
94.959   3.46000000e+02 
94.923   3.27000000e+02 
94.887   2.73000000e+02 
94.851   2.54000000e+02 
94.815   2.60000000e+02 
94.779   2.00000000e+02 
94.743   2.30000000e+02 
94.707   1.88000000e+02 
94.671   1.77000000e+02 
94.635   1.46000000e+02 
94.599   1.38000000e+02 
94.563   1.40000000e+02 
94.527   1.38000000e+02 
94.491   1.45000000e+02 
94.455   1.12000000e+02 
94.420   1.31000000e+02 
94.384   1.27000000e+02 
94.348   1.25000000e+02 
94.312   1.24000000e+02 
94.276   1.11000000e+02 
94.240   1.13000000e+02 
94.204   9.50000000e+01 
94.168   1.09000000e+02 
94.132   1.12000000e+02 
94.096   1.12000000e+02 
94.060   9.60000000e+01 
94.024   1.09000000e+02 
93.988   1.22000000e+02 
93.952   9.60000000e+01 
93.916   1.14000000e+02 
93.880   1.01000000e+02 
93.845   9.80000000e+01 
93.809   1.07000000e+02 
93.773   1.11000000e+02 
93.737   1.06000000e+02 
93.701   9.30000000e+01 
93.665   1.01000000e+02 
93.629   8.30000000e+01 
93.593   9.60000000e+01 
93.557   1.23000000e+02 
93.521   1.09000000e+02 
93.485   1.01000000e+02 
93.449   9.70000000e+01 
93.413   1.21000000e+02 
93.377   9.60000000e+01 
93.341   1.31000000e+02 
93.305   1.08000000e+02 
93.270   9.20000000e+01 
93.234   1.20000000e+02 
93.198   1.30000000e+02 
93.162   1.36000000e+02 
93.126   1.37000000e+02 
93.090   1.51000000e+02 
93.054   1.34000000e+02 
93.018   1.55000000e+02 
92.982   1.57000000e+02 
92.946   1.56000000e+02 
92.910   1.42000000e+02 
92.874   1.92000000e+02 
92.838   2.06000000e+02 
92.802   1.77000000e+02 
92.766   1.67000000e+02 
92.730   2.33000000e+02 
92.695   1.93000000e+02 
92.659   2.36000000e+02 
92.623   2.18000000e+02 
92.587   2.37000000e+02 
92.551   2.58000000e+02 
92.515   2.61000000e+02 
92.479   2.61000000e+02 
92.443   2.79000000e+02 
92.407   2.91000000e+02 
92.371   3.15000000e+02 
92.335   3.31000000e+02 
92.299   3.46000000e+02 
92.263   3.72000000e+02 
92.227   3.82000000e+02 
92.191   4.32000000e+02 
92.155   4.35000000e+02 
92.120   4.75000000e+02 
92.084   4.37000000e+02 
92.048   4.64000000e+02 
92.012   5.26000000e+02 
91.976   5.58000000e+02 
91.940   5.64000000e+02 
91.904   5.89000000e+02 
91.868   6.20000000e+02 
91.832   6.31000000e+02 
91.796   6.29000000e+02 
91.760   6.95000000e+02 
91.724   6.59000000e+02 
91.688   6.24000000e+02 
91.652   6.62000000e+02 
91.616   5.98000000e+02 
91.580   5.97000000e+02 
91.545   6.00000000e+02 
91.509   5.66000000e+02 
91.473   5.98000000e+02 
91.437   5.39000000e+02 
91.401   4.61000000e+02 
91.365   4.10000000e+02 
91.329   4.02000000e+02 
91.293   3.55000000e+02 
91.257   3.06000000e+02 
91.221   2.82000000e+02 
91.185   2.61000000e+02 
91.149   2.25000000e+02 
91.113   2.20000000e+02 
91.077   1.96000000e+02 
91.041   1.79000000e+02 
91.005   1.67000000e+02 
90.970   1.53000000e+02 
90.934   1.22000000e+02 
90.898   1.32000000e+02 
90.862   1.50000000e+02 
90.826   9.40000000e+01 
90.790   9.10000000e+01 
90.754   1.07000000e+02 
90.718   1.05000000e+02 
90.682   7.80000000e+01 
90.646   8.10000000e+01 
90.610   8.70000000e+01 
90.574   8.10000000e+01 
90.538   7.90000000e+01 
90.502   7.40000000e+01 
90.466   7.70000000e+01 
90.430   6.70000000e+01 
90.395   6.90000000e+01 
90.359   6.90000000e+01 
90.323   5.90000000e+01 
90.287   7.00000000e+01 
90.251   5.10000000e+01 
90.215   6.10000000e+01 
90.179   6.10000000e+01 
90.143   6.00000000e+01 
90.107   6.40000000e+01 
90.071   6.70000000e+01 
90.035   6.70000000e+01 
89.999   6.20000000e+01 
89.963   5.60000000e+01 
89.927   5.50000000e+01 
89.891   5.10000000e+01 
89.855   7.00000000e+01 
89.820   4.40000000e+01 
89.784   4.50000000e+01 
89.748   5.40000000e+01 
89.712   6.20000000e+01 
89.676   5.90000000e+01 
89.640   5.80000000e+01 
89.604   4.80000000e+01 
89.568   4.70000000e+01 
89.532   5.00000000e+01 
89.496   3.70000000e+01 
89.460   3.50000000e+01 
89.424   6.10000000e+01 
89.388   5.20000000e+01 
89.352   5.40000000e+01 
89.316   4.20000000e+01 
89.280   4.90000000e+01 
89.245   6.10000000e+01 
89.209   5.00000000e+01 
89.173   4.70000000e+01 
89.137   4.20000000e+01 
89.101   5.30000000e+01 
89.065   5.30000000e+01 
89.029   4.20000000e+01 
88.993   4.90000000e+01 
88.957   5.80000000e+01 
88.921   4.90000000e+01 
88.885   5.40000000e+01 
88.849   5.30000000e+01 
88.813   4.00000000e+01 
88.777   4.60000000e+01 
88.741   4.10000000e+01 
88.705   4.30000000e+01 
88.670   4.10000000e+01 
88.634   5.00000000e+01 
88.598   4.90000000e+01 
88.562   4.50000000e+01 
88.526   4.30000000e+01 
88.490   5.00000000e+01 
88.454   3.40000000e+01 
88.418   2.90000000e+01 
88.382   5.00000000e+01 
88.346   4.50000000e+01 
88.310   3.90000000e+01 
88.274   4.60000000e+01 
88.238   4.50000000e+01 
88.202   4.00000000e+01 
88.166   4.50000000e+01 
88.130   4.40000000e+01 
88.095   4.50000000e+01 
88.059   5.20000000e+01 
88.023   4.10000000e+01 

