EXPERIMENT FILE
Version = 2

[ Experiment Parameters ]
Experiment Description= <none> 
Number_of_Regions_in_Experiment= 1 

Original_File_name= C:\alexesca\data\10232012_Au _4f_61nuetral-31_Mono230.xps 
Instrument= HP ESCA West
Date= 10-23-2012
Time=  11:18:27

[ Layer Parameters ]
Layer_Type= XPS

[ Region 1 Parameters ]
Region_Description = Au 4f Dithered Scan                
BEcenter(eV) = 93.000000
BEwidth(eV) = 10.000000
BEstep(eV) = 0.035937
Dwell_Time(sec) = 1.000000
N_o_scans = 1  
N_o_Channels = 278  
Scan_mode = 0  (DITHERED)

[ L= 1 R= 1 ]
BEcenter= 93.000  
BEwidth= -9.955  
Excitation= 1486.600
Time_p_channel= 256.000 
Size= 278
97.977   6.80000000e+01 
97.941   5.80000000e+01 
97.905   4.80000000e+01 
97.870   5.30000000e+01 
97.834   5.50000000e+01 
97.798   4.60000000e+01 
97.762   5.00000000e+01 
97.726   7.70000000e+01 
97.690   4.80000000e+01 
97.654   4.20000000e+01 
97.618   6.00000000e+01 
97.582   5.90000000e+01 
97.546   6.10000000e+01 
97.510   5.70000000e+01 
97.474   6.10000000e+01 
97.438   5.60000000e+01 
97.402   7.00000000e+01 
97.366   6.80000000e+01 
97.330   7.10000000e+01 
97.295   6.60000000e+01 
97.259   6.50000000e+01 
97.223   7.30000000e+01 
97.187   7.10000000e+01 
97.151   7.80000000e+01 
97.115   8.70000000e+01 
97.079   8.20000000e+01 
97.043   8.40000000e+01 
97.007   8.60000000e+01 
96.971   9.00000000e+01 
96.935   7.20000000e+01 
96.899   8.20000000e+01 
96.863   8.10000000e+01 
96.827   8.40000000e+01 
96.791   1.04000000e+02 
96.755   8.60000000e+01 
96.720   9.90000000e+01 
96.684   1.00000000e+02 
96.648   1.04000000e+02 
96.612   1.00000000e+02 
96.576   1.10000000e+02 
96.540   1.17000000e+02 
96.504   1.33000000e+02 
96.468   1.25000000e+02 
96.432   1.47000000e+02 
96.396   1.43000000e+02 
96.360   1.66000000e+02 
96.324   1.46000000e+02 
96.288   1.60000000e+02 
96.252   1.74000000e+02 
96.216   1.84000000e+02 
96.180   2.02000000e+02 
96.145   1.79000000e+02 
96.109   2.20000000e+02 
96.073   2.12000000e+02 
96.037   2.34000000e+02 
96.001   2.23000000e+02 
95.965   2.23000000e+02 
95.929   2.20000000e+02 
95.893   2.56000000e+02 
95.857   2.50000000e+02 
95.821   2.58000000e+02 
95.785   2.19000000e+02 
95.749   2.32000000e+02 
95.713   2.53000000e+02 
95.677   2.55000000e+02 
95.641   2.61000000e+02 
95.605   2.66000000e+02 
95.570   2.68000000e+02 
95.534   2.10000000e+02 
95.498   2.15000000e+02 
95.462   2.57000000e+02 
95.426   1.95000000e+02 
95.390   2.00000000e+02 
95.354   2.02000000e+02 
95.318   1.94000000e+02 
95.282   1.55000000e+02 
95.246   1.55000000e+02 
95.210   1.30000000e+02 
95.174   1.21000000e+02 
95.138   1.24000000e+02 
95.102   1.24000000e+02 
95.066   1.22000000e+02 
95.030   9.50000000e+01 
94.995   8.60000000e+01 
94.959   8.90000000e+01 
94.923   9.00000000e+01 
94.887   7.80000000e+01 
94.851   6.10000000e+01 
94.815   8.30000000e+01 
94.779   7.20000000e+01 
94.743   6.20000000e+01 
94.707   6.70000000e+01 
94.671   6.40000000e+01 
94.635   5.80000000e+01 
94.599   7.30000000e+01 
94.563   6.40000000e+01 
94.527   5.90000000e+01 
94.491   5.60000000e+01 
94.455   5.50000000e+01 
94.420   4.10000000e+01 
94.384   4.80000000e+01 
94.348   6.20000000e+01 
94.312   5.20000000e+01 
94.276   6.40000000e+01 
94.240   5.50000000e+01 
94.204   5.30000000e+01 
94.168   5.80000000e+01 
94.132   4.80000000e+01 
94.096   4.60000000e+01 
94.060   4.80000000e+01 
94.024   5.00000000e+01 
93.988   4.70000000e+01 
93.952   4.60000000e+01 
93.916   6.40000000e+01 
93.880   4.50000000e+01 
93.845   4.70000000e+01 
93.809   6.00000000e+01 
93.773   5.50000000e+01 
93.737   5.10000000e+01 
93.701   6.20000000e+01 
93.665   5.60000000e+01 
93.629   5.50000000e+01 
93.593   6.00000000e+01 
93.557   6.20000000e+01 
93.521   5.70000000e+01 
93.485   7.90000000e+01 
93.449   6.00000000e+01 
93.413   6.70000000e+01 
93.377   7.40000000e+01 
93.341   8.10000000e+01 
93.305   8.60000000e+01 
93.270   7.40000000e+01 
93.234   7.00000000e+01 
93.198   7.80000000e+01 
93.162   9.40000000e+01 
93.126   9.50000000e+01 
93.090   9.00000000e+01 
93.054   1.09000000e+02 
93.018   1.00000000e+02 
92.982   1.15000000e+02 
92.946   1.15000000e+02 
92.910   1.37000000e+02 
92.874   1.24000000e+02 
92.838   1.38000000e+02 
92.802   1.25000000e+02 
92.766   1.46000000e+02 
92.730   1.61000000e+02 
92.695   1.67000000e+02 
92.659   1.74000000e+02 
92.623   1.83000000e+02 
92.587   2.16000000e+02 
92.551   2.18000000e+02 
92.515   2.26000000e+02 
92.479   1.92000000e+02 
92.443   2.20000000e+02 
92.407   2.57000000e+02 
92.371   2.46000000e+02 
92.335   2.76000000e+02 
92.299   2.94000000e+02 
92.263   2.84000000e+02 
92.227   3.02000000e+02 
92.191   2.87000000e+02 
92.155   2.88000000e+02 
92.120   3.35000000e+02 
92.084   3.32000000e+02 
92.048   3.08000000e+02 
92.012   3.05000000e+02 
91.976   3.09000000e+02 
91.940   3.04000000e+02 
91.904   3.22000000e+02 
91.868   2.93000000e+02 
91.832   2.84000000e+02 
91.796   2.46000000e+02 
91.760   2.44000000e+02 
91.724   2.26000000e+02 
91.688   2.12000000e+02 
91.652   1.94000000e+02 
91.616   1.85000000e+02 
91.580   1.69000000e+02 
91.545   1.70000000e+02 
91.509   1.56000000e+02 
91.473   1.27000000e+02 
91.437   1.28000000e+02 
91.401   9.20000000e+01 
91.365   9.70000000e+01 
91.329   8.60000000e+01 
91.293   7.30000000e+01 
91.257   5.30000000e+01 
91.221   8.30000000e+01 
91.185   5.80000000e+01 
91.149   6.40000000e+01 
91.113   4.60000000e+01 
91.077   5.00000000e+01 
91.041   5.40000000e+01 
91.005   5.40000000e+01 
90.970   5.20000000e+01 
90.934   5.50000000e+01 
90.898   4.40000000e+01 
90.862   4.30000000e+01 
90.826   4.40000000e+01 
90.790   4.30000000e+01 
90.754   3.60000000e+01 
90.718   4.30000000e+01 
90.682   3.70000000e+01 
90.646   4.30000000e+01 
90.610   3.00000000e+01 
90.574   4.10000000e+01 
90.538   3.40000000e+01 
90.502   4.20000000e+01 
90.466   3.30000000e+01 
90.430   3.60000000e+01 
90.395   2.90000000e+01 
90.359   3.10000000e+01 
90.323   3.10000000e+01 
90.287   3.40000000e+01 
90.251   3.60000000e+01 
90.215   2.90000000e+01 
90.179   3.60000000e+01 
90.143   3.20000000e+01 
90.107   2.10000000e+01 
90.071   3.30000000e+01 
90.035   2.60000000e+01 
89.999   3.10000000e+01 
89.963   1.80000000e+01 
89.927   2.40000000e+01 
89.891   2.70000000e+01 
89.855   2.60000000e+01 
89.820   3.00000000e+01 
89.784   3.40000000e+01 
89.748   3.70000000e+01 
89.712   2.60000000e+01 
89.676   2.90000000e+01 
89.640   2.70000000e+01 
89.604   2.20000000e+01 
89.568   2.40000000e+01 
89.532   3.10000000e+01 
89.496   3.40000000e+01 
89.460   3.10000000e+01 
89.424   2.80000000e+01 
89.388   3.70000000e+01 
89.352   1.90000000e+01 
89.316   2.60000000e+01 
89.280   3.40000000e+01 
89.245   1.80000000e+01 
89.209   1.90000000e+01 
89.173   2.90000000e+01 
89.137   3.10000000e+01 
89.101   2.20000000e+01 
89.065   3.10000000e+01 
89.029   1.30000000e+01 
88.993   2.20000000e+01 
88.957   3.20000000e+01 
88.921   2.40000000e+01 
88.885   2.60000000e+01 
88.849   2.50000000e+01 
88.813   1.80000000e+01 
88.777   2.50000000e+01 
88.741   2.10000000e+01 
88.705   2.20000000e+01 
88.670   2.40000000e+01 
88.634   2.80000000e+01 
88.598   3.30000000e+01 
88.562   2.10000000e+01 
88.526   2.50000000e+01 
88.490   2.40000000e+01 
88.454   2.80000000e+01 
88.418   2.70000000e+01 
88.382   3.60000000e+01 
88.346   2.70000000e+01 
88.310   3.20000000e+01 
88.274   3.10000000e+01 
88.238   3.00000000e+01 
88.202   2.80000000e+01 
88.166   2.60000000e+01 
88.130   2.80000000e+01 
88.095   2.40000000e+01 
88.059   2.20000000e+01 
88.023   3.00000000e+01 

