EXPERIMENT FILE
Version = 2

[ Experiment Parameters ]
Experiment Description= <none> 
Number_of_Regions_in_Experiment= 1 

Original_File_name= C:\alexesca\data\10242012_Au _4f_59nuetral-9_Mono222.xps 
Instrument= HP ESCA West
Date= 10-24-2012
Time=  17:22:45

[ Layer Parameters ]
Layer_Type= XPS

[ Region 1 Parameters ]
Region_Description = Au 4f Dithered Scan                
BEcenter(eV) = 93.000000
BEwidth(eV) = 10.000000
BEstep(eV) = 0.035937
Dwell_Time(sec) = 1.000000
N_o_scans = 1  
N_o_Channels = 278  
Scan_mode = 0  (DITHERED)

[ L= 1 R= 1 ]
BEcenter= 93.000  
BEwidth= -9.955  
Excitation= 1486.600
Time_p_channel= 256.000 
Size= 278
97.977   3.04000000e+02 
97.941   2.79000000e+02 
97.905   2.84000000e+02 
97.870   2.98000000e+02 
97.834   2.60000000e+02 
97.798   2.58000000e+02 
97.762   2.37000000e+02 
97.726   2.90000000e+02 
97.690   2.74000000e+02 
97.654   2.97000000e+02 
97.618   2.88000000e+02 
97.582   2.91000000e+02 
97.546   2.91000000e+02 
97.510   3.00000000e+02 
97.474   2.94000000e+02 
97.438   3.24000000e+02 
97.402   3.16000000e+02 
97.366   3.26000000e+02 
97.330   3.20000000e+02 
97.295   3.31000000e+02 
97.259   3.26000000e+02 
97.223   3.39000000e+02 
97.187   3.06000000e+02 
97.151   3.15000000e+02 
97.115   3.70000000e+02 
97.079   3.53000000e+02 
97.043   3.72000000e+02 
97.007   3.43000000e+02 
96.971   4.29000000e+02 
96.935   3.98000000e+02 
96.899   4.25000000e+02 
96.863   3.89000000e+02 
96.827   4.15000000e+02 
96.791   4.83000000e+02 
96.755   4.53000000e+02 
96.720   4.62000000e+02 
96.684   5.27000000e+02 
96.648   4.96000000e+02 
96.612   5.76000000e+02 
96.576   5.12000000e+02 
96.540   5.96000000e+02 
96.504   5.82000000e+02 
96.468   5.90000000e+02 
96.432   6.36000000e+02 
96.396   6.34000000e+02 
96.360   6.91000000e+02 
96.324   7.13000000e+02 
96.288   7.08000000e+02 
96.252   7.38000000e+02 
96.216   7.99000000e+02 
96.180   8.18000000e+02 
96.145   8.84000000e+02 
96.109   8.89000000e+02 
96.073   9.03000000e+02 
96.037   9.68000000e+02 
96.001   1.00800000e+03 
95.965   1.04200000e+03 
95.929   1.07000000e+03 
95.893   1.04700000e+03 
95.857   1.07800000e+03 
95.821   1.16000000e+03 
95.785   1.15300000e+03 
95.749   1.22900000e+03 
95.713   1.28400000e+03 
95.677   1.28200000e+03 
95.641   1.32800000e+03 
95.605   1.38000000e+03 
95.570   1.29900000e+03 
95.534   1.39900000e+03 
95.498   1.40300000e+03 
95.462   1.40100000e+03 
95.426   1.39800000e+03 
95.390   1.39000000e+03 
95.354   1.38500000e+03 
95.318   1.37500000e+03 
95.282   1.44700000e+03 
95.246   1.32200000e+03 
95.210   1.26300000e+03 
95.174   1.29100000e+03 
95.138   1.19900000e+03 
95.102   1.14800000e+03 
95.066   1.09700000e+03 
95.030   9.89000000e+02 
94.995   9.07000000e+02 
94.959   8.61000000e+02 
94.923   7.77000000e+02 
94.887   7.48000000e+02 
94.851   6.33000000e+02 
94.815   6.07000000e+02 
94.779   5.41000000e+02 
94.743   5.09000000e+02 
94.707   5.00000000e+02 
94.671   4.51000000e+02 
94.635   4.71000000e+02 
94.599   4.07000000e+02 
94.563   3.61000000e+02 
94.527   3.94000000e+02 
94.491   3.51000000e+02 
94.455   3.28000000e+02 
94.420   3.08000000e+02 
94.384   3.02000000e+02 
94.348   3.51000000e+02 
94.312   2.98000000e+02 
94.276   3.10000000e+02 
94.240   3.04000000e+02 
94.204   2.98000000e+02 
94.168   2.86000000e+02 
94.132   2.87000000e+02 
94.096   2.67000000e+02 
94.060   2.74000000e+02 
94.024   2.80000000e+02 
93.988   2.75000000e+02 
93.952   2.76000000e+02 
93.916   2.82000000e+02 
93.880   2.76000000e+02 
93.845   3.13000000e+02 
93.809   3.04000000e+02 
93.773   3.03000000e+02 
93.737   3.09000000e+02 
93.701   2.89000000e+02 
93.665   3.39000000e+02 
93.629   2.82000000e+02 
93.593   2.96000000e+02 
93.557   3.19000000e+02 
93.521   3.13000000e+02 
93.485   3.52000000e+02 
93.449   3.60000000e+02 
93.413   3.26000000e+02 
93.377   3.62000000e+02 
93.341   3.95000000e+02 
93.305   4.04000000e+02 
93.270   3.73000000e+02 
93.234   4.16000000e+02 
93.198   4.33000000e+02 
93.162   4.26000000e+02 
93.126   4.53000000e+02 
93.090   4.71000000e+02 
93.054   4.70000000e+02 
93.018   5.23000000e+02 
92.982   5.41000000e+02 
92.946   5.57000000e+02 
92.910   5.63000000e+02 
92.874   6.14000000e+02 
92.838   6.12000000e+02 
92.802   6.44000000e+02 
92.766   7.42000000e+02 
92.730   7.15000000e+02 
92.695   7.00000000e+02 
92.659   8.36000000e+02 
92.623   8.28000000e+02 
92.587   8.46000000e+02 
92.551   8.62000000e+02 
92.515   8.97000000e+02 
92.479   9.31000000e+02 
92.443   1.01300000e+03 
92.407   1.01400000e+03 
92.371   1.08900000e+03 
92.335   1.09500000e+03 
92.299   1.15800000e+03 
92.263   1.19900000e+03 
92.227   1.17100000e+03 
92.191   1.32000000e+03 
92.155   1.35900000e+03 
92.120   1.37500000e+03 
92.084   1.51500000e+03 
92.048   1.44900000e+03 
92.012   1.51700000e+03 
91.976   1.52900000e+03 
91.940   1.69000000e+03 
91.904   1.67400000e+03 
91.868   1.65900000e+03 
91.832   1.72600000e+03 
91.796   1.75500000e+03 
91.760   1.70400000e+03 
91.724   1.71400000e+03 
91.688   1.69500000e+03 
91.652   1.66200000e+03 
91.616   1.58300000e+03 
91.580   1.60900000e+03 
91.545   1.56500000e+03 
91.509   1.50300000e+03 
91.473   1.41500000e+03 
91.437   1.29800000e+03 
91.401   1.21800000e+03 
91.365   1.13300000e+03 
91.329   1.04200000e+03 
91.293   9.66000000e+02 
91.257   8.80000000e+02 
91.221   7.65000000e+02 
91.185   6.78000000e+02 
91.149   6.26000000e+02 
91.113   5.61000000e+02 
91.077   5.33000000e+02 
91.041   4.76000000e+02 
91.005   3.98000000e+02 
90.970   4.02000000e+02 
90.934   3.34000000e+02 
90.898   3.65000000e+02 
90.862   3.12000000e+02 
90.826   2.86000000e+02 
90.790   2.65000000e+02 
90.754   2.45000000e+02 
90.718   2.46000000e+02 
90.682   2.34000000e+02 
90.646   2.17000000e+02 
90.610   2.18000000e+02 
90.574   1.90000000e+02 
90.538   2.09000000e+02 
90.502   1.95000000e+02 
90.466   1.72000000e+02 
90.430   1.81000000e+02 
90.395   1.62000000e+02 
90.359   1.53000000e+02 
90.323   1.69000000e+02 
90.287   1.61000000e+02 
90.251   1.22000000e+02 
90.215   1.70000000e+02 
90.179   1.48000000e+02 
90.143   1.38000000e+02 
90.107   1.47000000e+02 
90.071   1.59000000e+02 
90.035   1.45000000e+02 
89.999   1.49000000e+02 
89.963   1.57000000e+02 
89.927   1.35000000e+02 
89.891   1.14000000e+02 
89.855   1.26000000e+02 
89.820   1.29000000e+02 
89.784   1.26000000e+02 
89.748   1.53000000e+02 
89.712   1.16000000e+02 
89.676   1.13000000e+02 
89.640   1.37000000e+02 
89.604   1.40000000e+02 
89.568   1.47000000e+02 
89.532   9.90000000e+01 
89.496   1.10000000e+02 
89.460   1.19000000e+02 
89.424   1.36000000e+02 
89.388   1.14000000e+02 
89.352   1.17000000e+02 
89.316   1.15000000e+02 
89.280   1.17000000e+02 
89.245   1.08000000e+02 
89.209   1.06000000e+02 
89.173   1.27000000e+02 
89.137   9.90000000e+01 
89.101   1.16000000e+02 
89.065   1.12000000e+02 
89.029   1.13000000e+02 
88.993   1.20000000e+02 
88.957   1.02000000e+02 
88.921   1.16000000e+02 
88.885   8.70000000e+01 
88.849   1.17000000e+02 
88.813   1.12000000e+02 
88.777   1.34000000e+02 
88.741   1.10000000e+02 
88.705   9.90000000e+01 
88.670   1.08000000e+02 
88.634   1.05000000e+02 
88.598   1.04000000e+02 
88.562   8.90000000e+01 
88.526   9.90000000e+01 
88.490   1.08000000e+02 
88.454   9.40000000e+01 
88.418   1.15000000e+02 
88.382   1.13000000e+02 
88.346   1.16000000e+02 
88.310   1.08000000e+02 
88.274   1.23000000e+02 
88.238   1.13000000e+02 
88.202   1.23000000e+02 
88.166   9.60000000e+01 
88.130   9.80000000e+01 
88.095   1.17000000e+02 
88.059   1.02000000e+02 
88.023   1.05000000e+02 

