EXPERIMENT FILE
Version = 2

[ Experiment Parameters ]
Experiment Description= <none> 
Number_of_Regions_in_Experiment= 1 

Original_File_name= C:\alexesca\data\10242012_Au _4f_59nuetral-29_Mono222.xps 
Instrument= HP ESCA West
Date= 10-24-2012
Time=  17:09:53

[ Layer Parameters ]
Layer_Type= XPS

[ Region 1 Parameters ]
Region_Description = Au 4f Dithered Scan                
BEcenter(eV) = 93.000000
BEwidth(eV) = 10.000000
BEstep(eV) = 0.035937
Dwell_Time(sec) = 1.000000
N_o_scans = 1  
N_o_Channels = 278  
Scan_mode = 0  (DITHERED)

[ L= 1 R= 1 ]
BEcenter= 93.000  
BEwidth= -9.955  
Excitation= 1486.600
Time_p_channel= 256.000 
Size= 278
97.977   1.15000000e+02 
97.941   1.12000000e+02 
97.905   9.50000000e+01 
97.870   9.60000000e+01 
97.834   9.00000000e+01 
97.798   1.07000000e+02 
97.762   1.12000000e+02 
97.726   9.90000000e+01 
97.690   9.80000000e+01 
97.654   1.19000000e+02 
97.618   1.19000000e+02 
97.582   1.00000000e+02 
97.546   1.07000000e+02 
97.510   1.10000000e+02 
97.474   1.05000000e+02 
97.438   1.13000000e+02 
97.402   1.07000000e+02 
97.366   1.27000000e+02 
97.330   1.07000000e+02 
97.295   1.07000000e+02 
97.259   1.21000000e+02 
97.223   1.24000000e+02 
97.187   1.27000000e+02 
97.151   1.09000000e+02 
97.115   1.16000000e+02 
97.079   1.23000000e+02 
97.043   1.20000000e+02 
97.007   1.23000000e+02 
96.971   1.04000000e+02 
96.935   1.24000000e+02 
96.899   1.43000000e+02 
96.863   1.60000000e+02 
96.827   1.38000000e+02 
96.791   1.49000000e+02 
96.755   1.43000000e+02 
96.720   1.76000000e+02 
96.684   1.82000000e+02 
96.648   1.72000000e+02 
96.612   1.78000000e+02 
96.576   1.65000000e+02 
96.540   1.78000000e+02 
96.504   1.76000000e+02 
96.468   1.99000000e+02 
96.432   1.85000000e+02 
96.396   1.86000000e+02 
96.360   2.04000000e+02 
96.324   2.11000000e+02 
96.288   2.48000000e+02 
96.252   2.39000000e+02 
96.216   2.61000000e+02 
96.180   2.70000000e+02 
96.145   2.48000000e+02 
96.109   2.82000000e+02 
96.073   2.78000000e+02 
96.037   3.40000000e+02 
96.001   3.32000000e+02 
95.965   3.41000000e+02 
95.929   3.56000000e+02 
95.893   3.74000000e+02 
95.857   3.98000000e+02 
95.821   4.04000000e+02 
95.785   4.24000000e+02 
95.749   4.50000000e+02 
95.713   4.41000000e+02 
95.677   4.70000000e+02 
95.641   5.02000000e+02 
95.605   5.35000000e+02 
95.570   5.16000000e+02 
95.534   5.31000000e+02 
95.498   5.47000000e+02 
95.462   5.88000000e+02 
95.426   5.73000000e+02 
95.390   5.36000000e+02 
95.354   5.77000000e+02 
95.318   5.37000000e+02 
95.282   5.50000000e+02 
95.246   5.14000000e+02 
95.210   4.73000000e+02 
95.174   4.54000000e+02 
95.138   4.32000000e+02 
95.102   4.14000000e+02 
95.066   3.92000000e+02 
95.030   3.64000000e+02 
94.995   3.37000000e+02 
94.959   3.16000000e+02 
94.923   3.00000000e+02 
94.887   2.51000000e+02 
94.851   2.19000000e+02 
94.815   2.06000000e+02 
94.779   1.78000000e+02 
94.743   1.75000000e+02 
94.707   1.58000000e+02 
94.671   1.65000000e+02 
94.635   1.54000000e+02 
94.599   1.40000000e+02 
94.563   1.50000000e+02 
94.527   1.32000000e+02 
94.491   1.32000000e+02 
94.455   1.45000000e+02 
94.420   1.13000000e+02 
94.384   1.27000000e+02 
94.348   1.23000000e+02 
94.312   1.06000000e+02 
94.276   1.08000000e+02 
94.240   1.15000000e+02 
94.204   1.19000000e+02 
94.168   1.06000000e+02 
94.132   1.00000000e+02 
94.096   1.06000000e+02 
94.060   1.22000000e+02 
94.024   1.06000000e+02 
93.988   1.25000000e+02 
93.952   9.60000000e+01 
93.916   9.70000000e+01 
93.880   1.14000000e+02 
93.845   1.13000000e+02 
93.809   1.01000000e+02 
93.773   1.02000000e+02 
93.737   1.08000000e+02 
93.701   1.22000000e+02 
93.665   1.08000000e+02 
93.629   1.07000000e+02 
93.593   1.06000000e+02 
93.557   1.08000000e+02 
93.521   1.11000000e+02 
93.485   1.03000000e+02 
93.449   1.37000000e+02 
93.413   1.15000000e+02 
93.377   1.18000000e+02 
93.341   1.09000000e+02 
93.305   1.24000000e+02 
93.270   1.11000000e+02 
93.234   1.26000000e+02 
93.198   1.30000000e+02 
93.162   1.21000000e+02 
93.126   1.46000000e+02 
93.090   1.51000000e+02 
93.054   1.24000000e+02 
93.018   1.30000000e+02 
92.982   1.42000000e+02 
92.946   1.69000000e+02 
92.910   1.73000000e+02 
92.874   1.53000000e+02 
92.838   1.81000000e+02 
92.802   2.03000000e+02 
92.766   2.09000000e+02 
92.730   2.00000000e+02 
92.695   2.19000000e+02 
92.659   2.40000000e+02 
92.623   2.45000000e+02 
92.587   2.54000000e+02 
92.551   2.57000000e+02 
92.515   2.67000000e+02 
92.479   3.02000000e+02 
92.443   3.05000000e+02 
92.407   3.24000000e+02 
92.371   3.49000000e+02 
92.335   3.97000000e+02 
92.299   3.99000000e+02 
92.263   4.39000000e+02 
92.227   4.68000000e+02 
92.191   4.64000000e+02 
92.155   4.55000000e+02 
92.120   5.14000000e+02 
92.084   5.26000000e+02 
92.048   5.32000000e+02 
92.012   5.92000000e+02 
91.976   5.40000000e+02 
91.940   5.91000000e+02 
91.904   6.43000000e+02 
91.868   6.45000000e+02 
91.832   6.85000000e+02 
91.796   6.75000000e+02 
91.760   6.80000000e+02 
91.724   6.27000000e+02 
91.688   6.65000000e+02 
91.652   6.79000000e+02 
91.616   6.47000000e+02 
91.580   6.64000000e+02 
91.545   5.62000000e+02 
91.509   5.84000000e+02 
91.473   5.15000000e+02 
91.437   4.84000000e+02 
91.401   4.62000000e+02 
91.365   4.18000000e+02 
91.329   3.70000000e+02 
91.293   3.54000000e+02 
91.257   3.17000000e+02 
91.221   2.90000000e+02 
91.185   2.36000000e+02 
91.149   1.96000000e+02 
91.113   1.98000000e+02 
91.077   1.95000000e+02 
91.041   1.60000000e+02 
91.005   1.51000000e+02 
90.970   1.37000000e+02 
90.934   1.16000000e+02 
90.898   1.27000000e+02 
90.862   1.00000000e+02 
90.826   1.06000000e+02 
90.790   9.90000000e+01 
90.754   8.70000000e+01 
90.718   9.60000000e+01 
90.682   7.70000000e+01 
90.646   8.70000000e+01 
90.610   8.00000000e+01 
90.574   6.80000000e+01 
90.538   7.00000000e+01 
90.502   8.30000000e+01 
90.466   8.60000000e+01 
90.430   6.00000000e+01 
90.395   7.80000000e+01 
90.359   8.10000000e+01 
90.323   8.00000000e+01 
90.287   6.40000000e+01 
90.251   6.90000000e+01 
90.215   6.00000000e+01 
90.179   6.50000000e+01 
90.143   6.80000000e+01 
90.107   6.90000000e+01 
90.071   5.90000000e+01 
90.035   6.00000000e+01 
89.999   6.40000000e+01 
89.963   5.10000000e+01 
89.927   5.50000000e+01 
89.891   6.30000000e+01 
89.855   6.20000000e+01 
89.820   4.90000000e+01 
89.784   4.60000000e+01 
89.748   5.50000000e+01 
89.712   5.30000000e+01 
89.676   6.60000000e+01 
89.640   6.50000000e+01 
89.604   5.60000000e+01 
89.568   6.20000000e+01 
89.532   6.10000000e+01 
89.496   5.90000000e+01 
89.460   5.90000000e+01 
89.424   6.40000000e+01 
89.388   4.60000000e+01 
89.352   5.20000000e+01 
89.316   4.10000000e+01 
89.280   4.60000000e+01 
89.245   5.20000000e+01 
89.209   5.00000000e+01 
89.173   5.70000000e+01 
89.137   5.30000000e+01 
89.101   4.70000000e+01 
89.065   4.30000000e+01 
89.029   4.10000000e+01 
88.993   4.30000000e+01 
88.957   4.40000000e+01 
88.921   4.50000000e+01 
88.885   4.40000000e+01 
88.849   4.30000000e+01 
88.813   5.70000000e+01 
88.777   4.40000000e+01 
88.741   5.30000000e+01 
88.705   4.40000000e+01 
88.670   6.70000000e+01 
88.634   4.40000000e+01 
88.598   4.10000000e+01 
88.562   5.50000000e+01 
88.526   4.00000000e+01 
88.490   3.80000000e+01 
88.454   4.80000000e+01 
88.418   4.30000000e+01 
88.382   3.10000000e+01 
88.346   5.90000000e+01 
88.310   4.00000000e+01 
88.274   5.00000000e+01 
88.238   4.90000000e+01 
88.202   4.30000000e+01 
88.166   4.70000000e+01 
88.130   5.10000000e+01 
88.095   4.40000000e+01 
88.059   4.90000000e+01 
88.023   5.50000000e+01 

