EXPERIMENT FILE
Version = 2

[ Experiment Parameters ]
Experiment Description= <none> 
Number_of_Regions_in_Experiment= 1 

Original_File_name= C:\alexesca\data\10242012_Au _4f_56nuetral-26_Mono195.xps 
Instrument= HP ESCA West
Date= 10-24-2012
Time=  14:10:23

[ Layer Parameters ]
Layer_Type= XPS

[ Region 1 Parameters ]
Region_Description = Au 4f Dithered Scan                
BEcenter(eV) = 93.000000
BEwidth(eV) = 10.000000
BEstep(eV) = 0.035937
Dwell_Time(sec) = 1.000000
N_o_scans = 1  
N_o_Channels = 278  
Scan_mode = 0  (DITHERED)

[ L= 1 R= 1 ]
BEcenter= 93.000  
BEwidth= -9.955  
Excitation= 1486.600
Time_p_channel= 256.000 
Size= 278
97.977   9.50000000e+01 
97.941   1.05000000e+02 
97.905   1.11000000e+02 
97.870   1.15000000e+02 
97.834   1.13000000e+02 
97.798   1.18000000e+02 
97.762   1.04000000e+02 
97.726   1.13000000e+02 
97.690   1.14000000e+02 
97.654   1.25000000e+02 
97.618   9.70000000e+01 
97.582   1.03000000e+02 
97.546   1.13000000e+02 
97.510   1.26000000e+02 
97.474   1.10000000e+02 
97.438   1.20000000e+02 
97.402   1.20000000e+02 
97.366   1.10000000e+02 
97.330   1.24000000e+02 
97.295   1.02000000e+02 
97.259   1.19000000e+02 
97.223   1.00000000e+02 
97.187   1.15000000e+02 
97.151   1.19000000e+02 
97.115   1.08000000e+02 
97.079   1.28000000e+02 
97.043   1.17000000e+02 
97.007   1.09000000e+02 
96.971   1.26000000e+02 
96.935   1.26000000e+02 
96.899   1.08000000e+02 
96.863   1.36000000e+02 
96.827   1.13000000e+02 
96.791   1.18000000e+02 
96.755   1.18000000e+02 
96.720   1.29000000e+02 
96.684   1.12000000e+02 
96.648   1.14000000e+02 
96.612   1.37000000e+02 
96.576   1.24000000e+02 
96.540   1.19000000e+02 
96.504   1.26000000e+02 
96.468   1.16000000e+02 
96.432   1.11000000e+02 
96.396   1.36000000e+02 
96.360   1.10000000e+02 
96.324   1.28000000e+02 
96.288   1.17000000e+02 
96.252   1.39000000e+02 
96.216   1.35000000e+02 
96.180   1.35000000e+02 
96.145   1.48000000e+02 
96.109   1.55000000e+02 
96.073   1.75000000e+02 
96.037   1.52000000e+02 
96.001   1.66000000e+02 
95.965   1.83000000e+02 
95.929   1.88000000e+02 
95.893   1.92000000e+02 
95.857   1.74000000e+02 
95.821   2.20000000e+02 
95.785   1.70000000e+02 
95.749   1.83000000e+02 
95.713   2.14000000e+02 
95.677   2.10000000e+02 
95.641   2.17000000e+02 
95.605   2.15000000e+02 
95.570   2.70000000e+02 
95.534   2.70000000e+02 
95.498   2.73000000e+02 
95.462   2.91000000e+02 
95.426   2.90000000e+02 
95.390   3.03000000e+02 
95.354   3.23000000e+02 
95.318   3.55000000e+02 
95.282   3.53000000e+02 
95.246   3.53000000e+02 
95.210   4.20000000e+02 
95.174   4.14000000e+02 
95.138   4.77000000e+02 
95.102   4.88000000e+02 
95.066   4.77000000e+02 
95.030   4.91000000e+02 
94.995   5.30000000e+02 
94.959   5.65000000e+02 
94.923   6.11000000e+02 
94.887   5.26000000e+02 
94.851   6.00000000e+02 
94.815   6.21000000e+02 
94.779   6.30000000e+02 
94.743   6.59000000e+02 
94.707   6.16000000e+02 
94.671   6.22000000e+02 
94.635   6.31000000e+02 
94.599   5.48000000e+02 
94.563   5.63000000e+02 
94.527   5.22000000e+02 
94.491   5.09000000e+02 
94.455   4.41000000e+02 
94.420   4.16000000e+02 
94.384   4.05000000e+02 
94.348   3.35000000e+02 
94.312   3.26000000e+02 
94.276   2.79000000e+02 
94.240   2.72000000e+02 
94.204   2.34000000e+02 
94.168   2.24000000e+02 
94.132   2.12000000e+02 
94.096   1.94000000e+02 
94.060   1.65000000e+02 
94.024   1.59000000e+02 
93.988   1.65000000e+02 
93.952   1.37000000e+02 
93.916   1.38000000e+02 
93.880   1.43000000e+02 
93.845   1.51000000e+02 
93.809   1.29000000e+02 
93.773   1.35000000e+02 
93.737   1.20000000e+02 
93.701   1.26000000e+02 
93.665   1.29000000e+02 
93.629   1.13000000e+02 
93.593   1.19000000e+02 
93.557   1.00000000e+02 
93.521   1.22000000e+02 
93.485   1.30000000e+02 
93.449   1.13000000e+02 
93.413   9.40000000e+01 
93.377   1.19000000e+02 
93.341   1.19000000e+02 
93.305   1.20000000e+02 
93.270   9.10000000e+01 
93.234   1.01000000e+02 
93.198   9.40000000e+01 
93.162   1.15000000e+02 
93.126   1.20000000e+02 
93.090   1.06000000e+02 
93.054   1.30000000e+02 
93.018   1.15000000e+02 
92.982   1.21000000e+02 
92.946   1.04000000e+02 
92.910   1.17000000e+02 
92.874   1.42000000e+02 
92.838   1.17000000e+02 
92.802   1.05000000e+02 
92.766   1.06000000e+02 
92.730   1.04000000e+02 
92.695   1.20000000e+02 
92.659   1.16000000e+02 
92.623   1.25000000e+02 
92.587   1.37000000e+02 
92.551   1.27000000e+02 
92.515   1.30000000e+02 
92.479   1.24000000e+02 
92.443   1.27000000e+02 
92.407   1.49000000e+02 
92.371   1.53000000e+02 
92.335   1.54000000e+02 
92.299   1.79000000e+02 
92.263   1.58000000e+02 
92.227   1.54000000e+02 
92.191   1.82000000e+02 
92.155   1.91000000e+02 
92.120   1.93000000e+02 
92.084   2.08000000e+02 
92.048   1.94000000e+02 
92.012   2.46000000e+02 
91.976   2.30000000e+02 
91.940   2.57000000e+02 
91.904   2.85000000e+02 
91.868   2.76000000e+02 
91.832   3.19000000e+02 
91.796   2.90000000e+02 
91.760   3.23000000e+02 
91.724   3.46000000e+02 
91.688   3.73000000e+02 
91.652   3.93000000e+02 
91.616   4.29000000e+02 
91.580   4.33000000e+02 
91.545   5.04000000e+02 
91.509   5.17000000e+02 
91.473   5.18000000e+02 
91.437   5.35000000e+02 
91.401   6.47000000e+02 
91.365   6.07000000e+02 
91.329   6.69000000e+02 
91.293   6.41000000e+02 
91.257   7.12000000e+02 
91.221   7.31000000e+02 
91.185   7.31000000e+02 
91.149   7.69000000e+02 
91.113   7.23000000e+02 
91.077   7.33000000e+02 
91.041   8.47000000e+02 
91.005   7.33000000e+02 
90.970   7.07000000e+02 
90.934   7.31000000e+02 
90.898   6.17000000e+02 
90.862   6.87000000e+02 
90.826   5.96000000e+02 
90.790   5.21000000e+02 
90.754   4.99000000e+02 
90.718   4.27000000e+02 
90.682   4.05000000e+02 
90.646   3.55000000e+02 
90.610   3.02000000e+02 
90.574   2.65000000e+02 
90.538   2.48000000e+02 
90.502   2.20000000e+02 
90.466   1.74000000e+02 
90.430   1.65000000e+02 
90.395   1.45000000e+02 
90.359   1.47000000e+02 
90.323   1.36000000e+02 
90.287   1.39000000e+02 
90.251   1.20000000e+02 
90.215   1.23000000e+02 
90.179   8.70000000e+01 
90.143   1.07000000e+02 
90.107   1.08000000e+02 
90.071   9.70000000e+01 
90.035   9.00000000e+01 
89.999   8.70000000e+01 
89.963   9.30000000e+01 
89.927   7.00000000e+01 
89.891   7.90000000e+01 
89.855   9.90000000e+01 
89.820   7.00000000e+01 
89.784   8.20000000e+01 
89.748   7.30000000e+01 
89.712   6.60000000e+01 
89.676   6.70000000e+01 
89.640   6.70000000e+01 
89.604   7.90000000e+01 
89.568   6.90000000e+01 
89.532   5.40000000e+01 
89.496   7.20000000e+01 
89.460   6.70000000e+01 
89.424   6.00000000e+01 
89.388   7.50000000e+01 
89.352   6.10000000e+01 
89.316   5.80000000e+01 
89.280   6.80000000e+01 
89.245   5.90000000e+01 
89.209   6.90000000e+01 
89.173   6.40000000e+01 
89.137   7.00000000e+01 
89.101   5.50000000e+01 
89.065   7.10000000e+01 
89.029   5.10000000e+01 
88.993   5.50000000e+01 
88.957   5.60000000e+01 
88.921   4.20000000e+01 
88.885   5.60000000e+01 
88.849   7.00000000e+01 
88.813   5.10000000e+01 
88.777   4.50000000e+01 
88.741   6.40000000e+01 
88.705   6.70000000e+01 
88.670   6.10000000e+01 
88.634   4.30000000e+01 
88.598   5.60000000e+01 
88.562   5.90000000e+01 
88.526   5.50000000e+01 
88.490   6.10000000e+01 
88.454   4.80000000e+01 
88.418   4.50000000e+01 
88.382   5.40000000e+01 
88.346   5.00000000e+01 
88.310   4.70000000e+01 
88.274   5.60000000e+01 
88.238   5.30000000e+01 
88.202   5.00000000e+01 
88.166   6.30000000e+01 
88.130   4.10000000e+01 
88.095   4.80000000e+01 
88.059   5.70000000e+01 
88.023   4.50000000e+01 

