EXPERIMENT FILE
Version = 2

[ Experiment Parameters ]
Experiment Description= <none> 
Number_of_Regions_in_Experiment= 1 

Original_File_name= C:\alexesca\data\10242012_Au _4f_56nuetral-26_Mono220.xps 
Instrument= HP ESCA West
Date= 10-24-2012
Time=  15:29:37

[ Layer Parameters ]
Layer_Type= XPS

[ Region 1 Parameters ]
Region_Description = Au 4f Dithered Scan                
BEcenter(eV) = 93.000000
BEwidth(eV) = 10.000000
BEstep(eV) = 0.035937
Dwell_Time(sec) = 1.000000
N_o_scans = 1  
N_o_Channels = 278  
Scan_mode = 0  (DITHERED)

[ L= 1 R= 1 ]
BEcenter= 93.000  
BEwidth= -9.955  
Excitation= 1486.600
Time_p_channel= 256.000 
Size= 278
97.977   1.21000000e+02 
97.941   1.05000000e+02 
97.905   1.12000000e+02 
97.870   1.05000000e+02 
97.834   1.15000000e+02 
97.798   1.04000000e+02 
97.762   1.22000000e+02 
97.726   9.90000000e+01 
97.690   1.14000000e+02 
97.654   1.03000000e+02 
97.618   1.31000000e+02 
97.582   1.18000000e+02 
97.546   1.03000000e+02 
97.510   1.04000000e+02 
97.474   1.15000000e+02 
97.438   1.05000000e+02 
97.402   1.06000000e+02 
97.366   1.24000000e+02 
97.330   1.01000000e+02 
97.295   1.30000000e+02 
97.259   1.22000000e+02 
97.223   1.11000000e+02 
97.187   1.27000000e+02 
97.151   1.19000000e+02 
97.115   1.17000000e+02 
97.079   1.48000000e+02 
97.043   1.29000000e+02 
97.007   1.17000000e+02 
96.971   1.26000000e+02 
96.935   1.30000000e+02 
96.899   1.21000000e+02 
96.863   1.25000000e+02 
96.827   1.34000000e+02 
96.791   1.41000000e+02 
96.755   1.41000000e+02 
96.720   1.46000000e+02 
96.684   1.51000000e+02 
96.648   1.57000000e+02 
96.612   1.53000000e+02 
96.576   1.57000000e+02 
96.540   1.39000000e+02 
96.504   1.55000000e+02 
96.468   1.60000000e+02 
96.432   1.32000000e+02 
96.396   1.64000000e+02 
96.360   1.77000000e+02 
96.324   1.68000000e+02 
96.288   2.13000000e+02 
96.252   1.85000000e+02 
96.216   2.00000000e+02 
96.180   1.99000000e+02 
96.145   2.01000000e+02 
96.109   2.24000000e+02 
96.073   2.59000000e+02 
96.037   2.51000000e+02 
96.001   2.47000000e+02 
95.965   2.57000000e+02 
95.929   2.76000000e+02 
95.893   3.14000000e+02 
95.857   3.29000000e+02 
95.821   3.19000000e+02 
95.785   3.48000000e+02 
95.749   3.59000000e+02 
95.713   3.84000000e+02 
95.677   4.42000000e+02 
95.641   4.21000000e+02 
95.605   4.56000000e+02 
95.570   4.81000000e+02 
95.534   4.39000000e+02 
95.498   4.58000000e+02 
95.462   4.74000000e+02 
95.426   4.93000000e+02 
95.390   5.89000000e+02 
95.354   5.56000000e+02 
95.318   6.09000000e+02 
95.282   5.94000000e+02 
95.246   6.10000000e+02 
95.210   6.13000000e+02 
95.174   6.26000000e+02 
95.138   6.37000000e+02 
95.102   6.04000000e+02 
95.066   6.13000000e+02 
95.030   5.78000000e+02 
94.995   5.40000000e+02 
94.959   5.31000000e+02 
94.923   5.35000000e+02 
94.887   4.55000000e+02 
94.851   4.55000000e+02 
94.815   3.72000000e+02 
94.779   3.70000000e+02 
94.743   3.38000000e+02 
94.707   2.88000000e+02 
94.671   3.05000000e+02 
94.635   2.71000000e+02 
94.599   2.56000000e+02 
94.563   2.39000000e+02 
94.527   2.00000000e+02 
94.491   1.94000000e+02 
94.455   1.69000000e+02 
94.420   1.35000000e+02 
94.384   1.59000000e+02 
94.348   1.60000000e+02 
94.312   1.51000000e+02 
94.276   1.42000000e+02 
94.240   1.36000000e+02 
94.204   1.51000000e+02 
94.168   1.20000000e+02 
94.132   1.23000000e+02 
94.096   1.16000000e+02 
94.060   1.30000000e+02 
94.024   1.21000000e+02 
93.988   1.30000000e+02 
93.952   1.31000000e+02 
93.916   1.17000000e+02 
93.880   1.20000000e+02 
93.845   1.09000000e+02 
93.809   1.30000000e+02 
93.773   1.29000000e+02 
93.737   1.07000000e+02 
93.701   9.30000000e+01 
93.665   1.15000000e+02 
93.629   1.07000000e+02 
93.593   1.23000000e+02 
93.557   1.05000000e+02 
93.521   1.08000000e+02 
93.485   1.10000000e+02 
93.449   1.29000000e+02 
93.413   1.21000000e+02 
93.377   1.09000000e+02 
93.341   1.36000000e+02 
93.305   1.13000000e+02 
93.270   1.15000000e+02 
93.234   1.07000000e+02 
93.198   1.16000000e+02 
93.162   1.48000000e+02 
93.126   1.23000000e+02 
93.090   9.90000000e+01 
93.054   1.41000000e+02 
93.018   1.41000000e+02 
92.982   1.53000000e+02 
92.946   1.46000000e+02 
92.910   1.44000000e+02 
92.874   1.49000000e+02 
92.838   1.60000000e+02 
92.802   1.51000000e+02 
92.766   1.48000000e+02 
92.730   1.75000000e+02 
92.695   1.63000000e+02 
92.659   1.71000000e+02 
92.623   1.77000000e+02 
92.587   1.94000000e+02 
92.551   2.13000000e+02 
92.515   2.31000000e+02 
92.479   2.36000000e+02 
92.443   2.06000000e+02 
92.407   2.81000000e+02 
92.371   2.69000000e+02 
92.335   2.76000000e+02 
92.299   2.99000000e+02 
92.263   3.01000000e+02 
92.227   3.34000000e+02 
92.191   3.44000000e+02 
92.155   3.53000000e+02 
92.120   3.91000000e+02 
92.084   4.28000000e+02 
92.048   4.35000000e+02 
92.012   4.52000000e+02 
91.976   4.54000000e+02 
91.940   4.83000000e+02 
91.904   5.50000000e+02 
91.868   5.30000000e+02 
91.832   5.91000000e+02 
91.796   5.88000000e+02 
91.760   6.10000000e+02 
91.724   6.35000000e+02 
91.688   7.07000000e+02 
91.652   6.77000000e+02 
91.616   7.08000000e+02 
91.580   7.36000000e+02 
91.545   7.55000000e+02 
91.509   7.84000000e+02 
91.473   7.66000000e+02 
91.437   7.57000000e+02 
91.401   7.62000000e+02 
91.365   7.24000000e+02 
91.329   7.02000000e+02 
91.293   6.23000000e+02 
91.257   6.24000000e+02 
91.221   5.34000000e+02 
91.185   5.39000000e+02 
91.149   5.11000000e+02 
91.113   4.17000000e+02 
91.077   3.81000000e+02 
91.041   3.51000000e+02 
91.005   3.33000000e+02 
90.970   3.07000000e+02 
90.934   2.68000000e+02 
90.898   1.86000000e+02 
90.862   2.15000000e+02 
90.826   1.94000000e+02 
90.790   1.71000000e+02 
90.754   1.52000000e+02 
90.718   1.33000000e+02 
90.682   1.38000000e+02 
90.646   1.25000000e+02 
90.610   1.06000000e+02 
90.574   1.04000000e+02 
90.538   1.07000000e+02 
90.502   1.21000000e+02 
90.466   1.01000000e+02 
90.430   7.50000000e+01 
90.395   9.20000000e+01 
90.359   1.01000000e+02 
90.323   8.00000000e+01 
90.287   8.20000000e+01 
90.251   7.00000000e+01 
90.215   8.40000000e+01 
90.179   7.10000000e+01 
90.143   6.70000000e+01 
90.107   7.80000000e+01 
90.071   6.30000000e+01 
90.035   8.40000000e+01 
89.999   8.60000000e+01 
89.963   7.40000000e+01 
89.927   5.30000000e+01 
89.891   5.20000000e+01 
89.855   6.60000000e+01 
89.820   7.80000000e+01 
89.784   8.10000000e+01 
89.748   4.60000000e+01 
89.712   4.80000000e+01 
89.676   7.20000000e+01 
89.640   6.40000000e+01 
89.604   5.30000000e+01 
89.568   5.20000000e+01 
89.532   5.70000000e+01 
89.496   6.30000000e+01 
89.460   5.00000000e+01 
89.424   5.90000000e+01 
89.388   5.60000000e+01 
89.352   6.40000000e+01 
89.316   6.10000000e+01 
89.280   5.30000000e+01 
89.245   5.30000000e+01 
89.209   5.50000000e+01 
89.173   5.80000000e+01 
89.137   5.50000000e+01 
89.101   4.50000000e+01 
89.065   4.90000000e+01 
89.029   6.10000000e+01 
88.993   4.20000000e+01 
88.957   4.90000000e+01 
88.921   4.80000000e+01 
88.885   5.50000000e+01 
88.849   6.00000000e+01 
88.813   5.10000000e+01 
88.777   4.90000000e+01 
88.741   6.20000000e+01 
88.705   5.30000000e+01 
88.670   5.10000000e+01 
88.634   6.20000000e+01 
88.598   4.60000000e+01 
88.562   5.90000000e+01 
88.526   4.70000000e+01 
88.490   4.40000000e+01 
88.454   4.80000000e+01 
88.418   5.10000000e+01 
88.382   4.60000000e+01 
88.346   5.00000000e+01 
88.310   4.90000000e+01 
88.274   4.20000000e+01 
88.238   5.20000000e+01 
88.202   5.80000000e+01 
88.166   4.90000000e+01 
88.130   5.20000000e+01 
88.095   5.30000000e+01 
88.059   4.80000000e+01 
88.023   6.00000000e+01 

