EXPERIMENT FILE
Version = 2

[ Experiment Parameters ]
Experiment Description= <none> 
Number_of_Regions_in_Experiment= 1 

Original_File_name= C:\alexesca\data\10252012_Au _4f_56nuetral-36_Mono219.xps 
Instrument= HP ESCA West
Date= 10-26-2012
Time=  16:11:04

[ Layer Parameters ]
Layer_Type= XPS

[ Region 1 Parameters ]
Region_Description = Au 4f Dithered Scan                
BEcenter(eV) = 93.000000
BEwidth(eV) = 10.000000
BEstep(eV) = 0.035937
Dwell_Time(sec) = 1.000000
N_o_scans = 1  
N_o_Channels = 278  
Scan_mode = 0  (DITHERED)

[ L= 1 R= 1 ]
BEcenter= 93.000  
BEwidth= -9.955  
Excitation= 1486.600
Time_p_channel= 256.000 
Size= 278
97.977   7.60000000e+01 
97.941   7.70000000e+01 
97.905   6.30000000e+01 
97.870   6.30000000e+01 
97.834   7.60000000e+01 
97.798   7.10000000e+01 
97.762   6.00000000e+01 
97.726   6.80000000e+01 
97.690   6.80000000e+01 
97.654   7.60000000e+01 
97.618   7.10000000e+01 
97.582   6.70000000e+01 
97.546   7.30000000e+01 
97.510   6.80000000e+01 
97.474   5.50000000e+01 
97.438   8.10000000e+01 
97.402   6.80000000e+01 
97.366   7.70000000e+01 
97.330   7.30000000e+01 
97.295   6.90000000e+01 
97.259   7.60000000e+01 
97.223   9.50000000e+01 
97.187   7.60000000e+01 
97.151   6.00000000e+01 
97.115   8.20000000e+01 
97.079   8.90000000e+01 
97.043   8.30000000e+01 
97.007   6.20000000e+01 
96.971   7.10000000e+01 
96.935   7.00000000e+01 
96.899   8.00000000e+01 
96.863   6.30000000e+01 
96.827   7.90000000e+01 
96.791   8.90000000e+01 
96.755   7.80000000e+01 
96.720   7.60000000e+01 
96.684   9.70000000e+01 
96.648   8.60000000e+01 
96.612   7.30000000e+01 
96.576   7.80000000e+01 
96.540   8.90000000e+01 
96.504   8.40000000e+01 
96.468   9.00000000e+01 
96.432   1.15000000e+02 
96.396   8.90000000e+01 
96.360   1.06000000e+02 
96.324   1.11000000e+02 
96.288   1.08000000e+02 
96.252   1.14000000e+02 
96.216   1.05000000e+02 
96.180   1.26000000e+02 
96.145   1.32000000e+02 
96.109   1.36000000e+02 
96.073   1.27000000e+02 
96.037   1.42000000e+02 
96.001   1.36000000e+02 
95.965   1.72000000e+02 
95.929   1.85000000e+02 
95.893   1.67000000e+02 
95.857   2.09000000e+02 
95.821   2.01000000e+02 
95.785   2.05000000e+02 
95.749   2.11000000e+02 
95.713   2.49000000e+02 
95.677   2.50000000e+02 
95.641   2.38000000e+02 
95.605   2.78000000e+02 
95.570   2.76000000e+02 
95.534   3.00000000e+02 
95.498   2.72000000e+02 
95.462   3.06000000e+02 
95.426   2.92000000e+02 
95.390   3.22000000e+02 
95.354   3.51000000e+02 
95.318   3.47000000e+02 
95.282   3.47000000e+02 
95.246   3.46000000e+02 
95.210   3.87000000e+02 
95.174   3.53000000e+02 
95.138   3.75000000e+02 
95.102   3.70000000e+02 
95.066   3.41000000e+02 
95.030   3.32000000e+02 
94.995   3.00000000e+02 
94.959   3.20000000e+02 
94.923   2.86000000e+02 
94.887   2.99000000e+02 
94.851   2.85000000e+02 
94.815   2.30000000e+02 
94.779   2.15000000e+02 
94.743   1.88000000e+02 
94.707   1.71000000e+02 
94.671   1.57000000e+02 
94.635   1.86000000e+02 
94.599   1.38000000e+02 
94.563   1.26000000e+02 
94.527   1.20000000e+02 
94.491   1.31000000e+02 
94.455   1.02000000e+02 
94.420   9.60000000e+01 
94.384   1.07000000e+02 
94.348   8.60000000e+01 
94.312   9.50000000e+01 
94.276   9.30000000e+01 
94.240   8.60000000e+01 
94.204   9.50000000e+01 
94.168   8.10000000e+01 
94.132   8.60000000e+01 
94.096   7.50000000e+01 
94.060   7.30000000e+01 
94.024   8.30000000e+01 
93.988   7.00000000e+01 
93.952   7.20000000e+01 
93.916   7.00000000e+01 
93.880   6.80000000e+01 
93.845   9.20000000e+01 
93.809   7.50000000e+01 
93.773   7.90000000e+01 
93.737   6.50000000e+01 
93.701   6.00000000e+01 
93.665   7.70000000e+01 
93.629   8.00000000e+01 
93.593   5.50000000e+01 
93.557   8.10000000e+01 
93.521   6.20000000e+01 
93.485   6.30000000e+01 
93.449   6.50000000e+01 
93.413   6.70000000e+01 
93.377   7.30000000e+01 
93.341   7.50000000e+01 
93.305   6.40000000e+01 
93.270   6.60000000e+01 
93.234   6.60000000e+01 
93.198   7.10000000e+01 
93.162   6.60000000e+01 
93.126   6.80000000e+01 
93.090   5.60000000e+01 
93.054   7.10000000e+01 
93.018   7.80000000e+01 
92.982   8.80000000e+01 
92.946   8.70000000e+01 
92.910   8.90000000e+01 
92.874   7.70000000e+01 
92.838   7.90000000e+01 
92.802   7.40000000e+01 
92.766   9.70000000e+01 
92.730   1.02000000e+02 
92.695   9.10000000e+01 
92.659   1.11000000e+02 
92.623   1.24000000e+02 
92.587   1.01000000e+02 
92.551   1.29000000e+02 
92.515   1.09000000e+02 
92.479   1.34000000e+02 
92.443   1.34000000e+02 
92.407   1.42000000e+02 
92.371   1.54000000e+02 
92.335   1.76000000e+02 
92.299   1.54000000e+02 
92.263   1.93000000e+02 
92.227   1.99000000e+02 
92.191   1.70000000e+02 
92.155   2.11000000e+02 
92.120   2.09000000e+02 
92.084   2.49000000e+02 
92.048   2.54000000e+02 
92.012   2.76000000e+02 
91.976   2.67000000e+02 
91.940   3.01000000e+02 
91.904   3.45000000e+02 
91.868   3.41000000e+02 
91.832   3.56000000e+02 
91.796   3.55000000e+02 
91.760   3.79000000e+02 
91.724   4.19000000e+02 
91.688   4.14000000e+02 
91.652   4.15000000e+02 
91.616   4.05000000e+02 
91.580   4.48000000e+02 
91.545   4.48000000e+02 
91.509   4.38000000e+02 
91.473   4.36000000e+02 
91.437   4.00000000e+02 
91.401   4.34000000e+02 
91.365   3.80000000e+02 
91.329   3.93000000e+02 
91.293   3.75000000e+02 
91.257   3.35000000e+02 
91.221   3.03000000e+02 
91.185   2.68000000e+02 
91.149   2.47000000e+02 
91.113   2.22000000e+02 
91.077   2.29000000e+02 
91.041   1.79000000e+02 
91.005   1.80000000e+02 
90.970   1.47000000e+02 
90.934   1.55000000e+02 
90.898   1.34000000e+02 
90.862   1.31000000e+02 
90.826   9.10000000e+01 
90.790   8.60000000e+01 
90.754   9.50000000e+01 
90.718   9.30000000e+01 
90.682   8.10000000e+01 
90.646   6.50000000e+01 
90.610   8.00000000e+01 
90.574   6.80000000e+01 
90.538   6.60000000e+01 
90.502   6.00000000e+01 
90.466   6.40000000e+01 
90.430   6.00000000e+01 
90.395   5.90000000e+01 
90.359   6.50000000e+01 
90.323   5.40000000e+01 
90.287   7.10000000e+01 
90.251   5.60000000e+01 
90.215   3.30000000e+01 
90.179   5.50000000e+01 
90.143   3.80000000e+01 
90.107   4.60000000e+01 
90.071   3.80000000e+01 
90.035   3.80000000e+01 
89.999   4.50000000e+01 
89.963   4.60000000e+01 
89.927   4.80000000e+01 
89.891   5.20000000e+01 
89.855   5.70000000e+01 
89.820   3.40000000e+01 
89.784   3.50000000e+01 
89.748   4.00000000e+01 
89.712   4.20000000e+01 
89.676   4.30000000e+01 
89.640   2.90000000e+01 
89.604   3.30000000e+01 
89.568   2.90000000e+01 
89.532   3.70000000e+01 
89.496   4.30000000e+01 
89.460   3.50000000e+01 
89.424   2.60000000e+01 
89.388   2.90000000e+01 
89.352   2.90000000e+01 
89.316   3.50000000e+01 
89.280   3.60000000e+01 
89.245   2.80000000e+01 
89.209   4.40000000e+01 
89.173   3.60000000e+01 
89.137   3.80000000e+01 
89.101   5.50000000e+01 
89.065   3.60000000e+01 
89.029   3.40000000e+01 
88.993   3.80000000e+01 
88.957   2.90000000e+01 
88.921   3.30000000e+01 
88.885   3.60000000e+01 
88.849   3.30000000e+01 
88.813   3.00000000e+01 
88.777   3.20000000e+01 
88.741   3.80000000e+01 
88.705   3.90000000e+01 
88.670   3.50000000e+01 
88.634   2.90000000e+01 
88.598   3.80000000e+01 
88.562   3.20000000e+01 
88.526   2.90000000e+01 
88.490   3.00000000e+01 
88.454   2.60000000e+01 
88.418   3.10000000e+01 
88.382   3.80000000e+01 
88.346   3.20000000e+01 
88.310   3.30000000e+01 
88.274   3.00000000e+01 
88.238   3.40000000e+01 
88.202   3.20000000e+01 
88.166   2.00000000e+01 
88.130   3.60000000e+01 
88.095   4.00000000e+01 
88.059   2.50000000e+01 
88.023   3.90000000e+01 

