EXPERIMENT FILE
Version = 2

[ Experiment Parameters ]
Experiment Description= <none> 
Number_of_Regions_in_Experiment= 1 

Original_File_name= C:\alexesca\data\10252012_Au _4f_56nuetral-36_Mono222.xps 
Instrument= HP ESCA West
Date= 10-25-2012
Time=  16:20:39

[ Layer Parameters ]
Layer_Type= XPS

[ Region 1 Parameters ]
Region_Description = Au 4f Dithered Scan                
BEcenter(eV) = 93.000000
BEwidth(eV) = 10.000000
BEstep(eV) = 0.035937
Dwell_Time(sec) = 1.000000
N_o_scans = 1  
N_o_Channels = 278  
Scan_mode = 0  (DITHERED)

[ L= 1 R= 1 ]
BEcenter= 93.000  
BEwidth= -9.955  
Excitation= 1486.600
Time_p_channel= 256.000 
Size= 278
97.977   6.60000000e+01 
97.941   7.50000000e+01 
97.905   6.00000000e+01 
97.870   7.00000000e+01 
97.834   7.00000000e+01 
97.798   6.60000000e+01 
97.762   7.20000000e+01 
97.726   6.30000000e+01 
97.690   6.10000000e+01 
97.654   8.10000000e+01 
97.618   7.20000000e+01 
97.582   6.40000000e+01 
97.546   5.90000000e+01 
97.510   5.40000000e+01 
97.474   6.10000000e+01 
97.438   5.90000000e+01 
97.402   6.10000000e+01 
97.366   6.70000000e+01 
97.330   6.10000000e+01 
97.295   6.80000000e+01 
97.259   6.00000000e+01 
97.223   7.30000000e+01 
97.187   5.30000000e+01 
97.151   4.80000000e+01 
97.115   6.30000000e+01 
97.079   7.00000000e+01 
97.043   6.70000000e+01 
97.007   5.60000000e+01 
96.971   5.30000000e+01 
96.935   5.40000000e+01 
96.899   5.80000000e+01 
96.863   7.30000000e+01 
96.827   7.50000000e+01 
96.791   8.00000000e+01 
96.755   6.90000000e+01 
96.720   7.70000000e+01 
96.684   7.50000000e+01 
96.648   9.20000000e+01 
96.612   7.50000000e+01 
96.576   7.00000000e+01 
96.540   8.10000000e+01 
96.504   7.40000000e+01 
96.468   8.80000000e+01 
96.432   7.40000000e+01 
96.396   7.70000000e+01 
96.360   9.30000000e+01 
96.324   6.90000000e+01 
96.288   8.90000000e+01 
96.252   8.80000000e+01 
96.216   9.80000000e+01 
96.180   8.10000000e+01 
96.145   1.13000000e+02 
96.109   1.09000000e+02 
96.073   9.80000000e+01 
96.037   1.26000000e+02 
96.001   1.06000000e+02 
95.965   1.39000000e+02 
95.929   1.43000000e+02 
95.893   1.36000000e+02 
95.857   1.48000000e+02 
95.821   1.48000000e+02 
95.785   1.37000000e+02 
95.749   1.74000000e+02 
95.713   1.78000000e+02 
95.677   1.58000000e+02 
95.641   1.80000000e+02 
95.605   1.89000000e+02 
95.570   2.19000000e+02 
95.534   2.40000000e+02 
95.498   2.27000000e+02 
95.462   2.23000000e+02 
95.426   2.42000000e+02 
95.390   2.65000000e+02 
95.354   2.69000000e+02 
95.318   2.74000000e+02 
95.282   3.15000000e+02 
95.246   3.26000000e+02 
95.210   3.18000000e+02 
95.174   2.93000000e+02 
95.138   3.21000000e+02 
95.102   3.23000000e+02 
95.066   3.01000000e+02 
95.030   2.99000000e+02 
94.995   3.19000000e+02 
94.959   3.09000000e+02 
94.923   3.10000000e+02 
94.887   2.97000000e+02 
94.851   2.90000000e+02 
94.815   2.63000000e+02 
94.779   2.44000000e+02 
94.743   2.39000000e+02 
94.707   1.94000000e+02 
94.671   2.10000000e+02 
94.635   1.82000000e+02 
94.599   1.61000000e+02 
94.563   1.61000000e+02 
94.527   1.49000000e+02 
94.491   1.49000000e+02 
94.455   1.29000000e+02 
94.420   1.08000000e+02 
94.384   9.00000000e+01 
94.348   1.10000000e+02 
94.312   1.00000000e+02 
94.276   8.80000000e+01 
94.240   8.30000000e+01 
94.204   7.70000000e+01 
94.168   8.50000000e+01 
94.132   8.30000000e+01 
94.096   7.70000000e+01 
94.060   6.90000000e+01 
94.024   7.80000000e+01 
93.988   7.40000000e+01 
93.952   7.60000000e+01 
93.916   6.80000000e+01 
93.880   6.10000000e+01 
93.845   6.90000000e+01 
93.809   5.60000000e+01 
93.773   7.40000000e+01 
93.737   6.20000000e+01 
93.701   5.90000000e+01 
93.665   5.80000000e+01 
93.629   4.90000000e+01 
93.593   6.50000000e+01 
93.557   5.80000000e+01 
93.521   5.50000000e+01 
93.485   7.70000000e+01 
93.449   6.40000000e+01 
93.413   6.90000000e+01 
93.377   5.60000000e+01 
93.341   6.90000000e+01 
93.305   4.90000000e+01 
93.270   7.00000000e+01 
93.234   6.50000000e+01 
93.198   7.50000000e+01 
93.162   6.00000000e+01 
93.126   6.10000000e+01 
93.090   6.80000000e+01 
93.054   6.80000000e+01 
93.018   5.80000000e+01 
92.982   5.40000000e+01 
92.946   7.80000000e+01 
92.910   6.00000000e+01 
92.874   7.80000000e+01 
92.838   6.30000000e+01 
92.802   8.60000000e+01 
92.766   7.80000000e+01 
92.730   9.00000000e+01 
92.695   7.70000000e+01 
92.659   9.30000000e+01 
92.623   8.80000000e+01 
92.587   7.80000000e+01 
92.551   1.09000000e+02 
92.515   1.00000000e+02 
92.479   1.21000000e+02 
92.443   1.05000000e+02 
92.407   1.24000000e+02 
92.371   1.24000000e+02 
92.335   1.18000000e+02 
92.299   1.28000000e+02 
92.263   1.41000000e+02 
92.227   1.23000000e+02 
92.191   1.75000000e+02 
92.155   1.36000000e+02 
92.120   1.89000000e+02 
92.084   1.77000000e+02 
92.048   1.82000000e+02 
92.012   2.00000000e+02 
91.976   2.23000000e+02 
91.940   2.43000000e+02 
91.904   2.34000000e+02 
91.868   2.42000000e+02 
91.832   2.63000000e+02 
91.796   2.73000000e+02 
91.760   2.80000000e+02 
91.724   3.29000000e+02 
91.688   3.22000000e+02 
91.652   3.75000000e+02 
91.616   3.58000000e+02 
91.580   3.53000000e+02 
91.545   3.87000000e+02 
91.509   3.78000000e+02 
91.473   3.81000000e+02 
91.437   3.90000000e+02 
91.401   3.51000000e+02 
91.365   3.75000000e+02 
91.329   3.48000000e+02 
91.293   4.00000000e+02 
91.257   3.32000000e+02 
91.221   3.33000000e+02 
91.185   3.44000000e+02 
91.149   3.11000000e+02 
91.113   2.77000000e+02 
91.077   2.32000000e+02 
91.041   2.13000000e+02 
91.005   1.88000000e+02 
90.970   1.94000000e+02 
90.934   1.84000000e+02 
90.898   1.73000000e+02 
90.862   1.27000000e+02 
90.826   1.31000000e+02 
90.790   1.29000000e+02 
90.754   1.24000000e+02 
90.718   1.02000000e+02 
90.682   7.20000000e+01 
90.646   7.30000000e+01 
90.610   8.50000000e+01 
90.574   8.10000000e+01 
90.538   7.30000000e+01 
90.502   8.40000000e+01 
90.466   7.10000000e+01 
90.430   5.90000000e+01 
90.395   6.80000000e+01 
90.359   5.40000000e+01 
90.323   5.20000000e+01 
90.287   5.20000000e+01 
90.251   5.20000000e+01 
90.215   5.10000000e+01 
90.179   4.20000000e+01 
90.143   4.90000000e+01 
90.107   4.20000000e+01 
90.071   3.90000000e+01 
90.035   5.30000000e+01 
89.999   4.50000000e+01 
89.963   4.60000000e+01 
89.927   5.30000000e+01 
89.891   4.00000000e+01 
89.855   3.90000000e+01 
89.820   4.60000000e+01 
89.784   3.50000000e+01 
89.748   3.20000000e+01 
89.712   4.30000000e+01 
89.676   4.30000000e+01 
89.640   3.50000000e+01 
89.604   4.30000000e+01 
89.568   4.00000000e+01 
89.532   3.30000000e+01 
89.496   3.50000000e+01 
89.460   2.90000000e+01 
89.424   4.50000000e+01 
89.388   3.60000000e+01 
89.352   2.60000000e+01 
89.316   4.00000000e+01 
89.280   2.90000000e+01 
89.245   2.70000000e+01 
89.209   3.40000000e+01 
89.173   2.20000000e+01 
89.137   3.20000000e+01 
89.101   3.70000000e+01 
89.065   3.20000000e+01 
89.029   2.10000000e+01 
88.993   3.40000000e+01 
88.957   3.30000000e+01 
88.921   3.40000000e+01 
88.885   2.20000000e+01 
88.849   3.80000000e+01 
88.813   3.40000000e+01 
88.777   3.80000000e+01 
88.741   3.10000000e+01 
88.705   3.60000000e+01 
88.670   3.90000000e+01 
88.634   2.30000000e+01 
88.598   2.40000000e+01 
88.562   4.00000000e+01 
88.526   2.90000000e+01 
88.490   3.70000000e+01 
88.454   3.40000000e+01 
88.418   2.90000000e+01 
88.382   2.60000000e+01 
88.346   2.50000000e+01 
88.310   2.80000000e+01 
88.274   2.50000000e+01 
88.238   2.80000000e+01 
88.202   2.30000000e+01 
88.166   3.60000000e+01 
88.130   1.50000000e+01 
88.095   3.10000000e+01 
88.059   3.10000000e+01 
88.023   2.80000000e+01 

