EXPERIMENT FILE
Version = 2

[ Experiment Parameters ]
Experiment Description= <none> 
Number_of_Regions_in_Experiment= 1 

Original_File_name= C:\alexesca\data\10252012_Au _4f_56nuetral-6_Mono222.xps 
Instrument= HP ESCA West
Date= 10-25-2012
Time=  17:10:41

[ Layer Parameters ]
Layer_Type= XPS

[ Region 1 Parameters ]
Region_Description = Au 4f Dithered Scan                
BEcenter(eV) = 93.000000
BEwidth(eV) = 10.000000
BEstep(eV) = 0.035937
Dwell_Time(sec) = 1.000000
N_o_scans = 1  
N_o_Channels = 278  
Scan_mode = 0  (DITHERED)

[ L= 1 R= 1 ]
BEcenter= 93.000  
BEwidth= -9.955  
Excitation= 1486.600
Time_p_channel= 256.000 
Size= 278
97.977   2.89000000e+02 
97.941   3.22000000e+02 
97.905   2.90000000e+02 
97.870   3.27000000e+02 
97.834   3.06000000e+02 
97.798   3.17000000e+02 
97.762   3.26000000e+02 
97.726   2.98000000e+02 
97.690   2.93000000e+02 
97.654   2.64000000e+02 
97.618   2.88000000e+02 
97.582   3.15000000e+02 
97.546   3.06000000e+02 
97.510   2.98000000e+02 
97.474   3.13000000e+02 
97.438   3.50000000e+02 
97.402   3.22000000e+02 
97.366   3.03000000e+02 
97.330   3.04000000e+02 
97.295   3.14000000e+02 
97.259   3.19000000e+02 
97.223   3.32000000e+02 
97.187   3.28000000e+02 
97.151   3.47000000e+02 
97.115   3.84000000e+02 
97.079   3.63000000e+02 
97.043   3.79000000e+02 
97.007   3.55000000e+02 
96.971   3.90000000e+02 
96.935   3.59000000e+02 
96.899   3.88000000e+02 
96.863   3.68000000e+02 
96.827   4.15000000e+02 
96.791   4.28000000e+02 
96.755   4.20000000e+02 
96.720   4.04000000e+02 
96.684   4.35000000e+02 
96.648   5.27000000e+02 
96.612   4.58000000e+02 
96.576   5.02000000e+02 
96.540   5.13000000e+02 
96.504   5.35000000e+02 
96.468   5.27000000e+02 
96.432   5.70000000e+02 
96.396   5.65000000e+02 
96.360   5.97000000e+02 
96.324   6.28000000e+02 
96.288   6.36000000e+02 
96.252   6.55000000e+02 
96.216   6.70000000e+02 
96.180   7.43000000e+02 
96.145   7.13000000e+02 
96.109   8.14000000e+02 
96.073   8.39000000e+02 
96.037   8.03000000e+02 
96.001   8.46000000e+02 
95.965   8.91000000e+02 
95.929   9.38000000e+02 
95.893   9.27000000e+02 
95.857   1.05100000e+03 
95.821   9.85000000e+02 
95.785   1.06700000e+03 
95.749   1.12900000e+03 
95.713   1.13700000e+03 
95.677   1.23600000e+03 
95.641   1.17300000e+03 
95.605   1.27500000e+03 
95.570   1.26900000e+03 
95.534   1.29500000e+03 
95.498   1.35500000e+03 
95.462   1.40700000e+03 
95.426   1.49400000e+03 
95.390   1.46700000e+03 
95.354   1.53300000e+03 
95.318   1.48700000e+03 
95.282   1.50400000e+03 
95.246   1.52700000e+03 
95.210   1.51800000e+03 
95.174   1.58500000e+03 
95.138   1.52100000e+03 
95.102   1.57700000e+03 
95.066   1.49300000e+03 
95.030   1.42500000e+03 
94.995   1.41500000e+03 
94.959   1.30400000e+03 
94.923   1.32500000e+03 
94.887   1.24700000e+03 
94.851   1.22500000e+03 
94.815   1.16300000e+03 
94.779   9.97000000e+02 
94.743   1.00200000e+03 
94.707   9.32000000e+02 
94.671   8.80000000e+02 
94.635   8.27000000e+02 
94.599   7.12000000e+02 
94.563   7.24000000e+02 
94.527   6.88000000e+02 
94.491   5.86000000e+02 
94.455   5.13000000e+02 
94.420   5.02000000e+02 
94.384   4.76000000e+02 
94.348   4.49000000e+02 
94.312   4.27000000e+02 
94.276   4.27000000e+02 
94.240   4.36000000e+02 
94.204   4.15000000e+02 
94.168   3.74000000e+02 
94.132   3.51000000e+02 
94.096   3.65000000e+02 
94.060   3.63000000e+02 
94.024   3.73000000e+02 
93.988   3.23000000e+02 
93.952   3.37000000e+02 
93.916   3.43000000e+02 
93.880   3.33000000e+02 
93.845   3.18000000e+02 
93.809   3.05000000e+02 
93.773   3.74000000e+02 
93.737   3.01000000e+02 
93.701   3.23000000e+02 
93.665   3.40000000e+02 
93.629   3.47000000e+02 
93.593   2.97000000e+02 
93.557   3.42000000e+02 
93.521   3.12000000e+02 
93.485   3.38000000e+02 
93.449   3.48000000e+02 
93.413   3.74000000e+02 
93.377   3.56000000e+02 
93.341   3.67000000e+02 
93.305   3.74000000e+02 
93.270   3.90000000e+02 
93.234   3.83000000e+02 
93.198   3.86000000e+02 
93.162   4.32000000e+02 
93.126   4.41000000e+02 
93.090   4.50000000e+02 
93.054   4.70000000e+02 
93.018   4.80000000e+02 
92.982   4.56000000e+02 
92.946   4.84000000e+02 
92.910   4.61000000e+02 
92.874   5.66000000e+02 
92.838   5.74000000e+02 
92.802   5.44000000e+02 
92.766   6.09000000e+02 
92.730   6.07000000e+02 
92.695   6.91000000e+02 
92.659   6.54000000e+02 
92.623   7.49000000e+02 
92.587   7.48000000e+02 
92.551   7.29000000e+02 
92.515   8.06000000e+02 
92.479   8.11000000e+02 
92.443   8.57000000e+02 
92.407   8.93000000e+02 
92.371   9.41000000e+02 
92.335   9.99000000e+02 
92.299   1.05400000e+03 
92.263   1.09100000e+03 
92.227   1.09000000e+03 
92.191   1.12900000e+03 
92.155   1.17500000e+03 
92.120   1.29500000e+03 
92.084   1.36300000e+03 
92.048   1.34800000e+03 
92.012   1.38800000e+03 
91.976   1.42800000e+03 
91.940   1.48900000e+03 
91.904   1.50200000e+03 
91.868   1.50400000e+03 
91.832   1.72400000e+03 
91.796   1.56300000e+03 
91.760   1.72800000e+03 
91.724   1.74900000e+03 
91.688   1.67700000e+03 
91.652   1.83100000e+03 
91.616   1.88200000e+03 
91.580   1.82700000e+03 
91.545   1.87000000e+03 
91.509   1.84800000e+03 
91.473   1.80900000e+03 
91.437   1.86400000e+03 
91.401   1.82500000e+03 
91.365   1.86000000e+03 
91.329   1.80200000e+03 
91.293   1.66000000e+03 
91.257   1.67600000e+03 
91.221   1.50000000e+03 
91.185   1.35300000e+03 
91.149   1.32000000e+03 
91.113   1.30700000e+03 
91.077   1.14000000e+03 
91.041   9.92000000e+02 
91.005   1.01700000e+03 
90.970   9.34000000e+02 
90.934   7.80000000e+02 
90.898   7.16000000e+02 
90.862   6.12000000e+02 
90.826   5.39000000e+02 
90.790   5.00000000e+02 
90.754   4.54000000e+02 
90.718   3.99000000e+02 
90.682   3.93000000e+02 
90.646   3.43000000e+02 
90.610   3.40000000e+02 
90.574   3.10000000e+02 
90.538   3.06000000e+02 
90.502   2.49000000e+02 
90.466   2.54000000e+02 
90.430   2.61000000e+02 
90.395   2.37000000e+02 
90.359   2.25000000e+02 
90.323   2.42000000e+02 
90.287   2.09000000e+02 
90.251   2.24000000e+02 
90.215   1.83000000e+02 
90.179   1.96000000e+02 
90.143   2.02000000e+02 
90.107   1.74000000e+02 
90.071   1.92000000e+02 
90.035   1.58000000e+02 
89.999   1.87000000e+02 
89.963   1.84000000e+02 
89.927   1.56000000e+02 
89.891   1.63000000e+02 
89.855   1.54000000e+02 
89.820   1.73000000e+02 
89.784   1.52000000e+02 
89.748   1.80000000e+02 
89.712   1.77000000e+02 
89.676   1.47000000e+02 
89.640   1.29000000e+02 
89.604   1.51000000e+02 
89.568   1.47000000e+02 
89.532   1.69000000e+02 
89.496   1.49000000e+02 
89.460   1.36000000e+02 
89.424   1.34000000e+02 
89.388   1.29000000e+02 
89.352   1.19000000e+02 
89.316   1.28000000e+02 
89.280   1.45000000e+02 
89.245   1.29000000e+02 
89.209   1.32000000e+02 
89.173   1.08000000e+02 
89.137   1.36000000e+02 
89.101   1.45000000e+02 
89.065   1.04000000e+02 
89.029   1.45000000e+02 
88.993   1.36000000e+02 
88.957   1.12000000e+02 
88.921   1.09000000e+02 
88.885   1.43000000e+02 
88.849   1.43000000e+02 
88.813   1.38000000e+02 
88.777   1.34000000e+02 
88.741   1.58000000e+02 
88.705   1.38000000e+02 
88.670   9.90000000e+01 
88.634   1.29000000e+02 
88.598   1.14000000e+02 
88.562   1.03000000e+02 
88.526   1.17000000e+02 
88.490   1.17000000e+02 
88.454   1.19000000e+02 
88.418   1.16000000e+02 
88.382   1.10000000e+02 
88.346   1.16000000e+02 
88.310   1.11000000e+02 
88.274   1.23000000e+02 
88.238   1.19000000e+02 
88.202   1.04000000e+02 
88.166   1.28000000e+02 
88.130   1.08000000e+02 
88.095   1.22000000e+02 
88.059   9.40000000e+01 
88.023   1.36000000e+02 

