EXPERIMENT FILE
Version = 2

[ Experiment Parameters ]
Experiment Description= <none> 
Number_of_Regions_in_Experiment= 1 

Original_File_name= C:\alexesca\data\10292012_Au _4f_56nuetral-26_Mono280.xps 
Instrument= HP ESCA West
Date= 10-29-2012
Time=  18:40:06

[ Layer Parameters ]
Layer_Type= XPS

[ Region 1 Parameters ]
Region_Description = Au 4f Dithered Scan                
BEcenter(eV) = 93.000000
BEwidth(eV) = 10.000000
BEstep(eV) = 0.035937
Dwell_Time(sec) = 1.000000
N_o_scans = 1  
N_o_Channels = 278  
Scan_mode = 0  (DITHERED)

[ L= 1 R= 1 ]
BEcenter= 93.000  
BEwidth= -9.955  
Excitation= 1486.600
Time_p_channel= 256.000 
Size= 278
97.977   1.25000000e+02 
97.941   1.67000000e+02 
97.905   1.41000000e+02 
97.870   1.38000000e+02 
97.834   1.55000000e+02 
97.798   1.36000000e+02 
97.762   1.52000000e+02 
97.726   1.56000000e+02 
97.690   1.53000000e+02 
97.654   1.49000000e+02 
97.618   1.49000000e+02 
97.582   1.48000000e+02 
97.546   1.31000000e+02 
97.510   1.51000000e+02 
97.474   1.53000000e+02 
97.438   1.62000000e+02 
97.402   1.47000000e+02 
97.366   1.52000000e+02 
97.330   1.57000000e+02 
97.295   1.62000000e+02 
97.259   1.70000000e+02 
97.223   1.72000000e+02 
97.187   1.66000000e+02 
97.151   1.86000000e+02 
97.115   1.78000000e+02 
97.079   1.99000000e+02 
97.043   1.73000000e+02 
97.007   1.88000000e+02 
96.971   2.00000000e+02 
96.935   2.04000000e+02 
96.899   2.32000000e+02 
96.863   2.14000000e+02 
96.827   2.03000000e+02 
96.791   2.56000000e+02 
96.755   2.18000000e+02 
96.720   2.37000000e+02 
96.684   2.43000000e+02 
96.648   2.42000000e+02 
96.612   2.89000000e+02 
96.576   2.93000000e+02 
96.540   2.91000000e+02 
96.504   2.85000000e+02 
96.468   3.08000000e+02 
96.432   3.16000000e+02 
96.396   3.24000000e+02 
96.360   3.50000000e+02 
96.324   3.89000000e+02 
96.288   4.00000000e+02 
96.252   4.34000000e+02 
96.216   4.39000000e+02 
96.180   4.70000000e+02 
96.145   4.89000000e+02 
96.109   5.28000000e+02 
96.073   4.87000000e+02 
96.037   5.07000000e+02 
96.001   5.51000000e+02 
95.965   5.99000000e+02 
95.929   6.15000000e+02 
95.893   7.04000000e+02 
95.857   6.52000000e+02 
95.821   6.85000000e+02 
95.785   6.62000000e+02 
95.749   7.10000000e+02 
95.713   7.32000000e+02 
95.677   7.44000000e+02 
95.641   7.19000000e+02 
95.605   7.28000000e+02 
95.570   7.15000000e+02 
95.534   7.79000000e+02 
95.498   7.21000000e+02 
95.462   7.09000000e+02 
95.426   7.16000000e+02 
95.390   6.45000000e+02 
95.354   6.23000000e+02 
95.318   5.45000000e+02 
95.282   5.10000000e+02 
95.246   5.18000000e+02 
95.210   4.72000000e+02 
95.174   4.22000000e+02 
95.138   3.61000000e+02 
95.102   3.90000000e+02 
95.066   3.26000000e+02 
95.030   2.91000000e+02 
94.995   2.64000000e+02 
94.959   2.42000000e+02 
94.923   2.54000000e+02 
94.887   2.25000000e+02 
94.851   2.32000000e+02 
94.815   2.05000000e+02 
94.779   2.01000000e+02 
94.743   2.01000000e+02 
94.707   1.69000000e+02 
94.671   1.73000000e+02 
94.635   1.58000000e+02 
94.599   1.66000000e+02 
94.563   1.63000000e+02 
94.527   1.46000000e+02 
94.491   1.56000000e+02 
94.455   1.51000000e+02 
94.420   1.48000000e+02 
94.384   1.48000000e+02 
94.348   1.38000000e+02 
94.312   1.37000000e+02 
94.276   1.52000000e+02 
94.240   1.32000000e+02 
94.204   1.26000000e+02 
94.168   1.31000000e+02 
94.132   1.55000000e+02 
94.096   1.43000000e+02 
94.060   1.51000000e+02 
94.024   1.35000000e+02 
93.988   1.38000000e+02 
93.952   1.50000000e+02 
93.916   1.39000000e+02 
93.880   1.29000000e+02 
93.845   1.41000000e+02 
93.809   1.51000000e+02 
93.773   1.56000000e+02 
93.737   1.43000000e+02 
93.701   1.61000000e+02 
93.665   1.56000000e+02 
93.629   1.42000000e+02 
93.593   1.61000000e+02 
93.557   1.48000000e+02 
93.521   1.85000000e+02 
93.485   1.77000000e+02 
93.449   1.78000000e+02 
93.413   1.29000000e+02 
93.377   1.78000000e+02 
93.341   1.64000000e+02 
93.305   1.65000000e+02 
93.270   1.67000000e+02 
93.234   2.20000000e+02 
93.198   2.09000000e+02 
93.162   2.32000000e+02 
93.126   2.22000000e+02 
93.090   2.56000000e+02 
93.054   2.80000000e+02 
93.018   2.42000000e+02 
92.982   2.72000000e+02 
92.946   2.72000000e+02 
92.910   3.17000000e+02 
92.874   3.13000000e+02 
92.838   3.58000000e+02 
92.802   3.59000000e+02 
92.766   3.89000000e+02 
92.730   3.99000000e+02 
92.695   4.28000000e+02 
92.659   4.09000000e+02 
92.623   4.31000000e+02 
92.587   4.70000000e+02 
92.551   5.15000000e+02 
92.515   5.13000000e+02 
92.479   5.25000000e+02 
92.443   6.03000000e+02 
92.407   6.20000000e+02 
92.371   6.27000000e+02 
92.335   6.17000000e+02 
92.299   6.84000000e+02 
92.263   7.79000000e+02 
92.227   7.49000000e+02 
92.191   8.04000000e+02 
92.155   8.32000000e+02 
92.120   8.36000000e+02 
92.084   8.28000000e+02 
92.048   8.41000000e+02 
92.012   9.16000000e+02 
91.976   9.43000000e+02 
91.940   8.97000000e+02 
91.904   9.36000000e+02 
91.868   9.78000000e+02 
91.832   9.02000000e+02 
91.796   8.70000000e+02 
91.760   8.21000000e+02 
91.724   7.71000000e+02 
91.688   7.62000000e+02 
91.652   7.06000000e+02 
91.616   6.22000000e+02 
91.580   5.50000000e+02 
91.545   5.07000000e+02 
91.509   4.55000000e+02 
91.473   4.17000000e+02 
91.437   3.57000000e+02 
91.401   3.32000000e+02 
91.365   2.94000000e+02 
91.329   2.50000000e+02 
91.293   2.25000000e+02 
91.257   1.96000000e+02 
91.221   1.92000000e+02 
91.185   1.67000000e+02 
91.149   1.56000000e+02 
91.113   1.81000000e+02 
91.077   1.60000000e+02 
91.041   1.37000000e+02 
91.005   1.40000000e+02 
90.970   1.13000000e+02 
90.934   1.46000000e+02 
90.898   1.17000000e+02 
90.862   1.31000000e+02 
90.826   1.04000000e+02 
90.790   1.04000000e+02 
90.754   1.08000000e+02 
90.718   1.01000000e+02 
90.682   1.01000000e+02 
90.646   8.20000000e+01 
90.610   1.04000000e+02 
90.574   9.40000000e+01 
90.538   1.05000000e+02 
90.502   8.80000000e+01 
90.466   9.10000000e+01 
90.430   6.60000000e+01 
90.395   8.20000000e+01 
90.359   7.50000000e+01 
90.323   8.70000000e+01 
90.287   8.60000000e+01 
90.251   6.50000000e+01 
90.215   7.20000000e+01 
90.179   8.40000000e+01 
90.143   6.70000000e+01 
90.107   6.90000000e+01 
90.071   8.40000000e+01 
90.035   6.60000000e+01 
89.999   8.40000000e+01 
89.963   6.10000000e+01 
89.927   6.20000000e+01 
89.891   6.10000000e+01 
89.855   7.40000000e+01 
89.820   6.50000000e+01 
89.784   8.10000000e+01 
89.748   7.10000000e+01 
89.712   6.80000000e+01 
89.676   6.80000000e+01 
89.640   8.50000000e+01 
89.604   5.60000000e+01 
89.568   5.00000000e+01 
89.532   5.50000000e+01 
89.496   7.00000000e+01 
89.460   6.70000000e+01 
89.424   5.50000000e+01 
89.388   6.30000000e+01 
89.352   5.70000000e+01 
89.316   6.10000000e+01 
89.280   5.70000000e+01 
89.245   6.50000000e+01 
89.209   6.70000000e+01 
89.173   6.70000000e+01 
89.137   7.90000000e+01 
89.101   8.00000000e+01 
89.065   6.30000000e+01 
89.029   6.40000000e+01 
88.993   6.20000000e+01 
88.957   6.90000000e+01 
88.921   6.90000000e+01 
88.885   5.60000000e+01 
88.849   6.10000000e+01 
88.813   6.90000000e+01 
88.777   5.40000000e+01 
88.741   6.50000000e+01 
88.705   5.20000000e+01 
88.670   6.20000000e+01 
88.634   7.90000000e+01 
88.598   6.30000000e+01 
88.562   6.20000000e+01 
88.526   5.60000000e+01 
88.490   4.90000000e+01 
88.454   6.60000000e+01 
88.418   6.20000000e+01 
88.382   5.80000000e+01 
88.346   6.70000000e+01 
88.310   5.30000000e+01 
88.274   6.10000000e+01 
88.238   5.60000000e+01 
88.202   5.60000000e+01 
88.166   6.10000000e+01 
88.130   5.60000000e+01 
88.095   5.10000000e+01 
88.059   5.00000000e+01 
88.023   5.60000000e+01 

