EXPERIMENT FILE
Version = 2

[ Experiment Parameters ]
Experiment Description= <none> 
Number_of_Regions_in_Experiment= 1 

Original_File_name= C:\alexesca\data\10302012_Au _4f_56nuetral-26_Mono290.xps 
Instrument= HP ESCA West
Date= 10-30-2012
Time=  18:04:46

[ Layer Parameters ]
Layer_Type= XPS

[ Region 1 Parameters ]
Region_Description = Au 4f Dithered Scan                
BEcenter(eV) = 93.000000
BEwidth(eV) = 10.000000
BEstep(eV) = 0.035937
Dwell_Time(sec) = 1.000000
N_o_scans = 1  
N_o_Channels = 278  
Scan_mode = 0  (DITHERED)

[ L= 1 R= 1 ]
BEcenter= 93.000  
BEwidth= -9.955  
Excitation= 1486.600
Time_p_channel= 256.000 
Size= 278
97.977   1.35000000e+02 
97.941   1.28000000e+02 
97.905   1.47000000e+02 
97.870   1.26000000e+02 
97.834   1.31000000e+02 
97.798   1.15000000e+02 
97.762   1.27000000e+02 
97.726   1.15000000e+02 
97.690   1.48000000e+02 
97.654   1.21000000e+02 
97.618   1.12000000e+02 
97.582   1.26000000e+02 
97.546   1.15000000e+02 
97.510   1.34000000e+02 
97.474   1.51000000e+02 
97.438   1.39000000e+02 
97.402   1.33000000e+02 
97.366   1.43000000e+02 
97.330   1.22000000e+02 
97.295   1.35000000e+02 
97.259   1.34000000e+02 
97.223   1.37000000e+02 
97.187   1.35000000e+02 
97.151   1.50000000e+02 
97.115   1.57000000e+02 
97.079   1.41000000e+02 
97.043   1.40000000e+02 
97.007   1.51000000e+02 
96.971   1.72000000e+02 
96.935   1.65000000e+02 
96.899   1.52000000e+02 
96.863   1.63000000e+02 
96.827   1.63000000e+02 
96.791   1.86000000e+02 
96.755   1.81000000e+02 
96.720   1.90000000e+02 
96.684   1.97000000e+02 
96.648   1.89000000e+02 
96.612   1.90000000e+02 
96.576   2.16000000e+02 
96.540   2.34000000e+02 
96.504   2.33000000e+02 
96.468   2.24000000e+02 
96.432   2.56000000e+02 
96.396   2.00000000e+02 
96.360   2.72000000e+02 
96.324   2.65000000e+02 
96.288   2.88000000e+02 
96.252   2.86000000e+02 
96.216   2.86000000e+02 
96.180   3.50000000e+02 
96.145   3.38000000e+02 
96.109   3.60000000e+02 
96.073   3.83000000e+02 
96.037   4.08000000e+02 
96.001   4.00000000e+02 
95.965   4.38000000e+02 
95.929   4.27000000e+02 
95.893   4.42000000e+02 
95.857   4.41000000e+02 
95.821   4.91000000e+02 
95.785   5.13000000e+02 
95.749   5.55000000e+02 
95.713   5.70000000e+02 
95.677   6.02000000e+02 
95.641   5.93000000e+02 
95.605   6.40000000e+02 
95.570   6.37000000e+02 
95.534   5.80000000e+02 
95.498   6.98000000e+02 
95.462   6.38000000e+02 
95.426   6.93000000e+02 
95.390   6.77000000e+02 
95.354   6.76000000e+02 
95.318   6.92000000e+02 
95.282   6.71000000e+02 
95.246   6.62000000e+02 
95.210   5.83000000e+02 
95.174   6.14000000e+02 
95.138   5.50000000e+02 
95.102   5.67000000e+02 
95.066   5.29000000e+02 
95.030   4.64000000e+02 
94.995   4.31000000e+02 
94.959   3.58000000e+02 
94.923   3.79000000e+02 
94.887   3.09000000e+02 
94.851   3.39000000e+02 
94.815   2.79000000e+02 
94.779   2.85000000e+02 
94.743   2.36000000e+02 
94.707   2.23000000e+02 
94.671   2.12000000e+02 
94.635   2.12000000e+02 
94.599   1.96000000e+02 
94.563   1.74000000e+02 
94.527   1.93000000e+02 
94.491   1.53000000e+02 
94.455   1.62000000e+02 
94.420   1.84000000e+02 
94.384   1.49000000e+02 
94.348   1.41000000e+02 
94.312   1.40000000e+02 
94.276   1.51000000e+02 
94.240   1.37000000e+02 
94.204   1.37000000e+02 
94.168   1.57000000e+02 
94.132   1.31000000e+02 
94.096   1.44000000e+02 
94.060   1.19000000e+02 
94.024   1.45000000e+02 
93.988   1.40000000e+02 
93.952   1.20000000e+02 
93.916   1.24000000e+02 
93.880   1.15000000e+02 
93.845   1.18000000e+02 
93.809   1.24000000e+02 
93.773   1.23000000e+02 
93.737   1.13000000e+02 
93.701   1.11000000e+02 
93.665   1.32000000e+02 
93.629   1.02000000e+02 
93.593   1.28000000e+02 
93.557   1.39000000e+02 
93.521   1.38000000e+02 
93.485   1.15000000e+02 
93.449   1.34000000e+02 
93.413   1.32000000e+02 
93.377   1.36000000e+02 
93.341   1.38000000e+02 
93.305   1.51000000e+02 
93.270   1.42000000e+02 
93.234   1.36000000e+02 
93.198   1.68000000e+02 
93.162   1.55000000e+02 
93.126   1.60000000e+02 
93.090   1.81000000e+02 
93.054   1.73000000e+02 
93.018   1.78000000e+02 
92.982   1.93000000e+02 
92.946   1.98000000e+02 
92.910   2.37000000e+02 
92.874   1.85000000e+02 
92.838   2.05000000e+02 
92.802   2.34000000e+02 
92.766   2.26000000e+02 
92.730   3.02000000e+02 
92.695   3.01000000e+02 
92.659   2.69000000e+02 
92.623   2.80000000e+02 
92.587   3.10000000e+02 
92.551   3.32000000e+02 
92.515   3.37000000e+02 
92.479   3.29000000e+02 
92.443   3.63000000e+02 
92.407   3.98000000e+02 
92.371   4.10000000e+02 
92.335   4.28000000e+02 
92.299   4.18000000e+02 
92.263   4.76000000e+02 
92.227   4.90000000e+02 
92.191   5.40000000e+02 
92.155   5.89000000e+02 
92.120   5.52000000e+02 
92.084   5.75000000e+02 
92.048   6.82000000e+02 
92.012   6.34000000e+02 
91.976   6.65000000e+02 
91.940   6.80000000e+02 
91.904   7.26000000e+02 
91.868   7.84000000e+02 
91.832   7.80000000e+02 
91.796   7.62000000e+02 
91.760   7.98000000e+02 
91.724   8.15000000e+02 
91.688   8.14000000e+02 
91.652   7.76000000e+02 
91.616   8.37000000e+02 
91.580   8.61000000e+02 
91.545   7.63000000e+02 
91.509   7.58000000e+02 
91.473   6.92000000e+02 
91.437   6.66000000e+02 
91.401   6.26000000e+02 
91.365   5.83000000e+02 
91.329   5.66000000e+02 
91.293   5.22000000e+02 
91.257   4.50000000e+02 
91.221   3.41000000e+02 
91.185   3.61000000e+02 
91.149   3.14000000e+02 
91.113   2.94000000e+02 
91.077   2.72000000e+02 
91.041   2.26000000e+02 
91.005   2.06000000e+02 
90.970   1.72000000e+02 
90.934   1.78000000e+02 
90.898   1.50000000e+02 
90.862   1.64000000e+02 
90.826   1.23000000e+02 
90.790   1.12000000e+02 
90.754   1.08000000e+02 
90.718   1.22000000e+02 
90.682   1.17000000e+02 
90.646   1.03000000e+02 
90.610   1.02000000e+02 
90.574   1.11000000e+02 
90.538   9.10000000e+01 
90.502   9.40000000e+01 
90.466   9.70000000e+01 
90.430   8.30000000e+01 
90.395   8.30000000e+01 
90.359   9.10000000e+01 
90.323   9.40000000e+01 
90.287   8.10000000e+01 
90.251   5.90000000e+01 
90.215   8.80000000e+01 
90.179   6.90000000e+01 
90.143   7.40000000e+01 
90.107   7.70000000e+01 
90.071   8.20000000e+01 
90.035   7.90000000e+01 
89.999   7.00000000e+01 
89.963   7.40000000e+01 
89.927   6.20000000e+01 
89.891   7.40000000e+01 
89.855   7.60000000e+01 
89.820   6.70000000e+01 
89.784   7.30000000e+01 
89.748   5.80000000e+01 
89.712   7.20000000e+01 
89.676   5.40000000e+01 
89.640   6.80000000e+01 
89.604   5.90000000e+01 
89.568   5.80000000e+01 
89.532   6.90000000e+01 
89.496   5.30000000e+01 
89.460   5.10000000e+01 
89.424   5.80000000e+01 
89.388   5.10000000e+01 
89.352   6.40000000e+01 
89.316   7.20000000e+01 
89.280   6.40000000e+01 
89.245   5.30000000e+01 
89.209   6.20000000e+01 
89.173   6.60000000e+01 
89.137   6.50000000e+01 
89.101   5.70000000e+01 
89.065   6.60000000e+01 
89.029   4.60000000e+01 
88.993   5.80000000e+01 
88.957   5.60000000e+01 
88.921   5.20000000e+01 
88.885   6.70000000e+01 
88.849   7.00000000e+01 
88.813   5.90000000e+01 
88.777   5.90000000e+01 
88.741   6.40000000e+01 
88.705   5.90000000e+01 
88.670   5.30000000e+01 
88.634   4.70000000e+01 
88.598   5.30000000e+01 
88.562   5.90000000e+01 
88.526   3.80000000e+01 
88.490   4.50000000e+01 
88.454   5.80000000e+01 
88.418   6.40000000e+01 
88.382   6.60000000e+01 
88.346   6.00000000e+01 
88.310   5.40000000e+01 
88.274   4.40000000e+01 
88.238   6.40000000e+01 
88.202   4.60000000e+01 
88.166   5.30000000e+01 
88.130   5.10000000e+01 
88.095   5.30000000e+01 
88.059   6.20000000e+01 
88.023   4.90000000e+01 

