EXPERIMENT FILE
Version = 2

[ Experiment Parameters ]
Experiment Description= <none> 
Number_of_Regions_in_Experiment= 1 

Original_File_name= C:\alexesca\data\10302012_Au _4f_56nuetral-26_Mono300.xps 
Instrument= HP ESCA West
Date= 10-30-2012
Time=  18:44:22

[ Layer Parameters ]
Layer_Type= XPS

[ Region 1 Parameters ]
Region_Description = Au 4f Dithered Scan                
BEcenter(eV) = 93.000000
BEwidth(eV) = 10.000000
BEstep(eV) = 0.035937
Dwell_Time(sec) = 1.000000
N_o_scans = 1  
N_o_Channels = 278  
Scan_mode = 0  (DITHERED)

[ L= 1 R= 1 ]
BEcenter= 93.000  
BEwidth= -9.955  
Excitation= 1486.600
Time_p_channel= 256.000 
Size= 278
97.977   1.25000000e+02 
97.941   1.29000000e+02 
97.905   1.25000000e+02 
97.870   1.04000000e+02 
97.834   1.03000000e+02 
97.798   1.20000000e+02 
97.762   1.54000000e+02 
97.726   1.32000000e+02 
97.690   1.29000000e+02 
97.654   1.28000000e+02 
97.618   1.34000000e+02 
97.582   1.44000000e+02 
97.546   1.26000000e+02 
97.510   1.37000000e+02 
97.474   1.45000000e+02 
97.438   1.41000000e+02 
97.402   1.45000000e+02 
97.366   1.55000000e+02 
97.330   1.56000000e+02 
97.295   1.71000000e+02 
97.259   1.78000000e+02 
97.223   1.73000000e+02 
97.187   1.78000000e+02 
97.151   1.88000000e+02 
97.115   1.71000000e+02 
97.079   1.97000000e+02 
97.043   2.19000000e+02 
97.007   2.25000000e+02 
96.971   1.93000000e+02 
96.935   2.34000000e+02 
96.899   2.05000000e+02 
96.863   2.27000000e+02 
96.827   2.62000000e+02 
96.791   2.60000000e+02 
96.755   2.80000000e+02 
96.720   2.79000000e+02 
96.684   2.89000000e+02 
96.648   3.21000000e+02 
96.612   3.01000000e+02 
96.576   3.14000000e+02 
96.540   3.22000000e+02 
96.504   3.86000000e+02 
96.468   4.10000000e+02 
96.432   3.30000000e+02 
96.396   3.85000000e+02 
96.360   4.39000000e+02 
96.324   4.52000000e+02 
96.288   4.44000000e+02 
96.252   5.00000000e+02 
96.216   4.56000000e+02 
96.180   5.02000000e+02 
96.145   5.11000000e+02 
96.109   5.14000000e+02 
96.073   5.89000000e+02 
96.037   6.08000000e+02 
96.001   5.50000000e+02 
95.965   6.41000000e+02 
95.929   5.96000000e+02 
95.893   6.54000000e+02 
95.857   6.00000000e+02 
95.821   6.28000000e+02 
95.785   6.34000000e+02 
95.749   6.37000000e+02 
95.713   6.29000000e+02 
95.677   6.18000000e+02 
95.641   5.63000000e+02 
95.605   5.83000000e+02 
95.570   5.69000000e+02 
95.534   4.78000000e+02 
95.498   5.15000000e+02 
95.462   4.67000000e+02 
95.426   4.32000000e+02 
95.390   4.07000000e+02 
95.354   3.57000000e+02 
95.318   3.61000000e+02 
95.282   3.36000000e+02 
95.246   2.54000000e+02 
95.210   2.66000000e+02 
95.174   2.47000000e+02 
95.138   2.23000000e+02 
95.102   2.08000000e+02 
95.066   2.04000000e+02 
95.030   1.93000000e+02 
94.995   1.42000000e+02 
94.959   1.67000000e+02 
94.923   1.90000000e+02 
94.887   1.62000000e+02 
94.851   1.51000000e+02 
94.815   1.21000000e+02 
94.779   1.69000000e+02 
94.743   1.56000000e+02 
94.707   1.44000000e+02 
94.671   1.17000000e+02 
94.635   1.09000000e+02 
94.599   1.38000000e+02 
94.563   1.43000000e+02 
94.527   1.32000000e+02 
94.491   1.19000000e+02 
94.455   1.42000000e+02 
94.420   1.24000000e+02 
94.384   1.20000000e+02 
94.348   1.17000000e+02 
94.312   1.34000000e+02 
94.276   1.16000000e+02 
94.240   1.14000000e+02 
94.204   1.33000000e+02 
94.168   1.24000000e+02 
94.132   1.29000000e+02 
94.096   1.23000000e+02 
94.060   1.68000000e+02 
94.024   1.28000000e+02 
93.988   1.18000000e+02 
93.952   1.21000000e+02 
93.916   1.37000000e+02 
93.880   1.37000000e+02 
93.845   1.34000000e+02 
93.809   1.44000000e+02 
93.773   1.49000000e+02 
93.737   1.42000000e+02 
93.701   1.72000000e+02 
93.665   1.38000000e+02 
93.629   1.33000000e+02 
93.593   1.75000000e+02 
93.557   1.79000000e+02 
93.521   1.80000000e+02 
93.485   1.88000000e+02 
93.449   1.93000000e+02 
93.413   1.94000000e+02 
93.377   2.09000000e+02 
93.341   2.07000000e+02 
93.305   1.87000000e+02 
93.270   2.21000000e+02 
93.234   2.52000000e+02 
93.198   2.47000000e+02 
93.162   2.62000000e+02 
93.126   2.73000000e+02 
93.090   2.87000000e+02 
93.054   3.19000000e+02 
93.018   3.15000000e+02 
92.982   3.35000000e+02 
92.946   3.68000000e+02 
92.910   3.74000000e+02 
92.874   3.90000000e+02 
92.838   3.94000000e+02 
92.802   3.94000000e+02 
92.766   4.23000000e+02 
92.730   4.57000000e+02 
92.695   4.61000000e+02 
92.659   4.89000000e+02 
92.623   5.25000000e+02 
92.587   5.76000000e+02 
92.551   5.56000000e+02 
92.515   5.44000000e+02 
92.479   6.22000000e+02 
92.443   5.94000000e+02 
92.407   6.23000000e+02 
92.371   6.86000000e+02 
92.335   6.57000000e+02 
92.299   6.63000000e+02 
92.263   7.33000000e+02 
92.227   7.54000000e+02 
92.191   7.26000000e+02 
92.155   7.48000000e+02 
92.120   7.74000000e+02 
92.084   7.54000000e+02 
92.048   7.24000000e+02 
92.012   7.25000000e+02 
91.976   6.82000000e+02 
91.940   6.96000000e+02 
91.904   6.52000000e+02 
91.868   5.74000000e+02 
91.832   5.60000000e+02 
91.796   5.23000000e+02 
91.760   5.27000000e+02 
91.724   4.63000000e+02 
91.688   4.28000000e+02 
91.652   3.74000000e+02 
91.616   3.54000000e+02 
91.580   3.20000000e+02 
91.545   2.76000000e+02 
91.509   2.66000000e+02 
91.473   2.43000000e+02 
91.437   1.75000000e+02 
91.401   1.68000000e+02 
91.365   1.68000000e+02 
91.329   1.22000000e+02 
91.293   1.50000000e+02 
91.257   1.30000000e+02 
91.221   1.43000000e+02 
91.185   1.06000000e+02 
91.149   1.27000000e+02 
91.113   1.05000000e+02 
91.077   9.30000000e+01 
91.041   9.40000000e+01 
91.005   8.80000000e+01 
90.970   1.08000000e+02 
90.934   8.50000000e+01 
90.898   1.02000000e+02 
90.862   8.00000000e+01 
90.826   7.90000000e+01 
90.790   8.20000000e+01 
90.754   9.10000000e+01 
90.718   6.80000000e+01 
90.682   6.80000000e+01 
90.646   7.10000000e+01 
90.610   7.00000000e+01 
90.574   6.90000000e+01 
90.538   7.10000000e+01 
90.502   7.10000000e+01 
90.466   7.90000000e+01 
90.430   6.60000000e+01 
90.395   6.60000000e+01 
90.359   5.20000000e+01 
90.323   7.50000000e+01 
90.287   5.00000000e+01 
90.251   6.70000000e+01 
90.215   5.70000000e+01 
90.179   5.70000000e+01 
90.143   6.40000000e+01 
90.107   6.30000000e+01 
90.071   5.00000000e+01 
90.035   5.70000000e+01 
89.999   5.40000000e+01 
89.963   7.60000000e+01 
89.927   6.00000000e+01 
89.891   6.40000000e+01 
89.855   6.40000000e+01 
89.820   5.00000000e+01 
89.784   6.60000000e+01 
89.748   7.30000000e+01 
89.712   5.20000000e+01 
89.676   5.30000000e+01 
89.640   5.40000000e+01 
89.604   5.70000000e+01 
89.568   5.00000000e+01 
89.532   5.50000000e+01 
89.496   3.60000000e+01 
89.460   5.30000000e+01 
89.424   5.50000000e+01 
89.388   5.80000000e+01 
89.352   5.30000000e+01 
89.316   5.30000000e+01 
89.280   6.20000000e+01 
89.245   5.50000000e+01 
89.209   4.90000000e+01 
89.173   6.00000000e+01 
89.137   5.60000000e+01 
89.101   5.20000000e+01 
89.065   4.80000000e+01 
89.029   4.90000000e+01 
88.993   4.60000000e+01 
88.957   7.10000000e+01 
88.921   5.10000000e+01 
88.885   5.40000000e+01 
88.849   6.30000000e+01 
88.813   5.10000000e+01 
88.777   5.30000000e+01 
88.741   3.60000000e+01 
88.705   5.20000000e+01 
88.670   5.60000000e+01 
88.634   5.40000000e+01 
88.598   5.40000000e+01 
88.562   5.10000000e+01 
88.526   6.90000000e+01 
88.490   4.00000000e+01 
88.454   3.80000000e+01 
88.418   4.80000000e+01 
88.382   4.10000000e+01 
88.346   4.20000000e+01 
88.310   5.20000000e+01 
88.274   5.10000000e+01 
88.238   4.30000000e+01 
88.202   5.40000000e+01 
88.166   3.80000000e+01 
88.130   4.90000000e+01 
88.095   5.00000000e+01 
88.059   4.30000000e+01 
88.023   3.90000000e+01 

