EXPERIMENT FILE
Version = 2

[ Experiment Parameters ]
Experiment Description= <none> 
Number_of_Regions_in_Experiment= 1 

Original_File_name= C:\alexesca\data\10302012_Au _4f_56nuetral-6_Mono310.xps 
Instrument= HP ESCA West
Date= 10-31-2012
Time=  13:23:59

[ Layer Parameters ]
Layer_Type= XPS

[ Region 1 Parameters ]
Region_Description = Au 4f Dithered Scan                
BEcenter(eV) = 93.000000
BEwidth(eV) = 10.000000
BEstep(eV) = 0.035937
Dwell_Time(sec) = 1.000000
N_o_scans = 1  
N_o_Channels = 278  
Scan_mode = 0  (DITHERED)

[ L= 1 R= 1 ]
BEcenter= 93.000  
BEwidth= -9.955  
Excitation= 1486.600
Time_p_channel= 256.000 
Size= 278
97.977   2.74000000e+02 
97.941   2.49000000e+02 
97.905   2.84000000e+02 
97.870   2.98000000e+02 
97.834   2.86000000e+02 
97.798   2.84000000e+02 
97.762   2.62000000e+02 
97.726   2.49000000e+02 
97.690   2.64000000e+02 
97.654   3.13000000e+02 
97.618   3.04000000e+02 
97.582   3.20000000e+02 
97.546   3.10000000e+02 
97.510   3.01000000e+02 
97.474   3.65000000e+02 
97.438   3.78000000e+02 
97.402   3.39000000e+02 
97.366   3.65000000e+02 
97.330   3.78000000e+02 
97.295   4.13000000e+02 
97.259   4.08000000e+02 
97.223   4.25000000e+02 
97.187   4.11000000e+02 
97.151   4.42000000e+02 
97.115   5.07000000e+02 
97.079   4.61000000e+02 
97.043   5.37000000e+02 
97.007   5.47000000e+02 
96.971   5.05000000e+02 
96.935   5.31000000e+02 
96.899   5.89000000e+02 
96.863   5.97000000e+02 
96.827   6.27000000e+02 
96.791   6.52000000e+02 
96.755   6.85000000e+02 
96.720   7.32000000e+02 
96.684   7.16000000e+02 
96.648   7.82000000e+02 
96.612   7.99000000e+02 
96.576   7.50000000e+02 
96.540   8.59000000e+02 
96.504   8.29000000e+02 
96.468   8.97000000e+02 
96.432   8.83000000e+02 
96.396   9.47000000e+02 
96.360   9.76000000e+02 
96.324   9.61000000e+02 
96.288   1.00200000e+03 
96.252   1.04700000e+03 
96.216   1.10500000e+03 
96.180   1.12500000e+03 
96.145   1.11000000e+03 
96.109   1.09300000e+03 
96.073   1.14800000e+03 
96.037   1.12800000e+03 
96.001   1.24300000e+03 
95.965   1.18800000e+03 
95.929   1.18100000e+03 
95.893   1.17200000e+03 
95.857   1.19800000e+03 
95.821   1.19400000e+03 
95.785   1.16900000e+03 
95.749   1.15000000e+03 
95.713   1.09000000e+03 
95.677   1.13700000e+03 
95.641   1.11300000e+03 
95.605   1.02800000e+03 
95.570   1.00600000e+03 
95.534   9.64000000e+02 
95.498   9.27000000e+02 
95.462   8.25000000e+02 
95.426   8.32000000e+02 
95.390   6.63000000e+02 
95.354   6.87000000e+02 
95.318   6.57000000e+02 
95.282   6.12000000e+02 
95.246   5.89000000e+02 
95.210   5.29000000e+02 
95.174   5.08000000e+02 
95.138   4.56000000e+02 
95.102   4.15000000e+02 
95.066   4.20000000e+02 
95.030   4.20000000e+02 
94.995   3.78000000e+02 
94.959   3.78000000e+02 
94.923   3.85000000e+02 
94.887   3.81000000e+02 
94.851   3.47000000e+02 
94.815   3.37000000e+02 
94.779   3.24000000e+02 
94.743   3.38000000e+02 
94.707   3.10000000e+02 
94.671   3.24000000e+02 
94.635   3.06000000e+02 
94.599   2.97000000e+02 
94.563   2.71000000e+02 
94.527   3.14000000e+02 
94.491   2.95000000e+02 
94.455   2.80000000e+02 
94.420   2.35000000e+02 
94.384   2.59000000e+02 
94.348   2.84000000e+02 
94.312   2.71000000e+02 
94.276   2.76000000e+02 
94.240   2.75000000e+02 
94.204   2.82000000e+02 
94.168   2.62000000e+02 
94.132   2.79000000e+02 
94.096   2.72000000e+02 
94.060   2.85000000e+02 
94.024   2.71000000e+02 
93.988   2.85000000e+02 
93.952   2.92000000e+02 
93.916   3.04000000e+02 
93.880   3.07000000e+02 
93.845   3.87000000e+02 
93.809   3.43000000e+02 
93.773   3.48000000e+02 
93.737   3.96000000e+02 
93.701   3.40000000e+02 
93.665   3.83000000e+02 
93.629   3.85000000e+02 
93.593   4.77000000e+02 
93.557   4.27000000e+02 
93.521   4.48000000e+02 
93.485   4.42000000e+02 
93.449   4.93000000e+02 
93.413   5.13000000e+02 
93.377   5.20000000e+02 
93.341   5.73000000e+02 
93.305   6.20000000e+02 
93.270   6.12000000e+02 
93.234   6.23000000e+02 
93.198   6.86000000e+02 
93.162   7.00000000e+02 
93.126   7.57000000e+02 
93.090   7.45000000e+02 
93.054   8.19000000e+02 
93.018   7.60000000e+02 
92.982   8.63000000e+02 
92.946   8.84000000e+02 
92.910   9.69000000e+02 
92.874   9.59000000e+02 
92.838   9.86000000e+02 
92.802   1.02400000e+03 
92.766   1.07100000e+03 
92.730   1.09700000e+03 
92.695   1.12800000e+03 
92.659   1.17200000e+03 
92.623   1.19800000e+03 
92.587   1.27700000e+03 
92.551   1.25800000e+03 
92.515   1.36100000e+03 
92.479   1.31800000e+03 
92.443   1.37100000e+03 
92.407   1.37900000e+03 
92.371   1.41000000e+03 
92.335   1.39800000e+03 
92.299   1.46500000e+03 
92.263   1.37700000e+03 
92.227   1.39300000e+03 
92.191   1.45100000e+03 
92.155   1.43800000e+03 
92.120   1.44500000e+03 
92.084   1.33200000e+03 
92.048   1.33600000e+03 
92.012   1.30800000e+03 
91.976   1.24200000e+03 
91.940   1.28600000e+03 
91.904   1.12200000e+03 
91.868   1.11900000e+03 
91.832   1.04300000e+03 
91.796   1.02400000e+03 
91.760   9.75000000e+02 
91.724   8.28000000e+02 
91.688   7.88000000e+02 
91.652   6.87000000e+02 
91.616   6.14000000e+02 
91.580   6.39000000e+02 
91.545   5.56000000e+02 
91.509   5.16000000e+02 
91.473   4.36000000e+02 
91.437   4.26000000e+02 
91.401   3.93000000e+02 
91.365   3.57000000e+02 
91.329   3.48000000e+02 
91.293   3.00000000e+02 
91.257   2.82000000e+02 
91.221   2.74000000e+02 
91.185   2.70000000e+02 
91.149   2.46000000e+02 
91.113   2.16000000e+02 
91.077   2.45000000e+02 
91.041   2.68000000e+02 
91.005   2.21000000e+02 
90.970   1.82000000e+02 
90.934   1.93000000e+02 
90.898   2.19000000e+02 
90.862   1.66000000e+02 
90.826   1.73000000e+02 
90.790   1.62000000e+02 
90.754   1.65000000e+02 
90.718   1.72000000e+02 
90.682   1.58000000e+02 
90.646   1.54000000e+02 
90.610   1.50000000e+02 
90.574   1.31000000e+02 
90.538   1.59000000e+02 
90.502   1.29000000e+02 
90.466   1.34000000e+02 
90.430   1.46000000e+02 
90.395   1.39000000e+02 
90.359   1.24000000e+02 
90.323   1.10000000e+02 
90.287   1.45000000e+02 
90.251   1.18000000e+02 
90.215   1.12000000e+02 
90.179   1.17000000e+02 
90.143   1.05000000e+02 
90.107   1.20000000e+02 
90.071   1.16000000e+02 
90.035   1.29000000e+02 
89.999   9.90000000e+01 
89.963   9.90000000e+01 
89.927   1.19000000e+02 
89.891   1.15000000e+02 
89.855   1.00000000e+02 
89.820   9.90000000e+01 
89.784   1.18000000e+02 
89.748   1.17000000e+02 
89.712   1.00000000e+02 
89.676   1.02000000e+02 
89.640   1.14000000e+02 
89.604   1.09000000e+02 
89.568   1.01000000e+02 
89.532   1.00000000e+02 
89.496   7.80000000e+01 
89.460   9.00000000e+01 
89.424   7.60000000e+01 
89.388   9.60000000e+01 
89.352   8.50000000e+01 
89.316   8.40000000e+01 
89.280   7.60000000e+01 
89.245   8.70000000e+01 
89.209   8.20000000e+01 
89.173   6.80000000e+01 
89.137   9.20000000e+01 
89.101   9.30000000e+01 
89.065   7.40000000e+01 
89.029   9.80000000e+01 
88.993   8.90000000e+01 
88.957   8.90000000e+01 
88.921   9.00000000e+01 
88.885   9.70000000e+01 
88.849   1.06000000e+02 
88.813   9.80000000e+01 
88.777   1.14000000e+02 
88.741   8.50000000e+01 
88.705   8.30000000e+01 
88.670   8.90000000e+01 
88.634   7.90000000e+01 
88.598   8.50000000e+01 
88.562   8.80000000e+01 
88.526   9.90000000e+01 
88.490   7.50000000e+01 
88.454   7.90000000e+01 
88.418   6.90000000e+01 
88.382   9.40000000e+01 
88.346   9.80000000e+01 
88.310   9.40000000e+01 
88.274   8.40000000e+01 
88.238   7.50000000e+01 
88.202   8.90000000e+01 
88.166   8.70000000e+01 
88.130   7.40000000e+01 
88.095   8.20000000e+01 
88.059   8.40000000e+01 
88.023   7.90000000e+01 

