EXPERIMENT FILE
Version = 2

[ Experiment Parameters ]
Experiment Description= <none> 
Number_of_Regions_in_Experiment= 1 

Original_File_name= C:\alexesca\data\10312012_Au _4f_57nuetral-27_Mono275.xps 
Instrument= HP ESCA West
Date= 10-31-2012
Time=  15:39:58

[ Layer Parameters ]
Layer_Type= XPS

[ Region 1 Parameters ]
Region_Description = Au 4f Dithered Scan                
BEcenter(eV) = 93.000000
BEwidth(eV) = 10.000000
BEstep(eV) = 0.035937
Dwell_Time(sec) = 1.000000
N_o_scans = 1  
N_o_Channels = 278  
Scan_mode = 0  (DITHERED)

[ L= 1 R= 1 ]
BEcenter= 93.000  
BEwidth= -9.955  
Excitation= 1486.600
Time_p_channel= 256.000 
Size= 278
97.977   1.42000000e+02 
97.941   1.38000000e+02 
97.905   1.33000000e+02 
97.870   1.06000000e+02 
97.834   1.22000000e+02 
97.798   1.25000000e+02 
97.762   1.39000000e+02 
97.726   1.35000000e+02 
97.690   1.42000000e+02 
97.654   1.34000000e+02 
97.618   1.42000000e+02 
97.582   1.37000000e+02 
97.546   1.61000000e+02 
97.510   1.55000000e+02 
97.474   1.63000000e+02 
97.438   1.71000000e+02 
97.402   1.60000000e+02 
97.366   1.63000000e+02 
97.330   1.69000000e+02 
97.295   1.56000000e+02 
97.259   1.61000000e+02 
97.223   1.67000000e+02 
97.187   1.56000000e+02 
97.151   1.61000000e+02 
97.115   1.93000000e+02 
97.079   1.86000000e+02 
97.043   2.06000000e+02 
97.007   2.11000000e+02 
96.971   2.07000000e+02 
96.935   2.00000000e+02 
96.899   2.11000000e+02 
96.863   2.39000000e+02 
96.827   2.35000000e+02 
96.791   2.45000000e+02 
96.755   2.54000000e+02 
96.720   2.68000000e+02 
96.684   2.51000000e+02 
96.648   2.74000000e+02 
96.612   2.86000000e+02 
96.576   3.06000000e+02 
96.540   2.87000000e+02 
96.504   3.02000000e+02 
96.468   3.19000000e+02 
96.432   3.40000000e+02 
96.396   3.85000000e+02 
96.360   4.01000000e+02 
96.324   3.89000000e+02 
96.288   4.22000000e+02 
96.252   4.31000000e+02 
96.216   4.72000000e+02 
96.180   4.54000000e+02 
96.145   4.98000000e+02 
96.109   5.35000000e+02 
96.073   5.41000000e+02 
96.037   5.45000000e+02 
96.001   5.44000000e+02 
95.965   6.33000000e+02 
95.929   6.54000000e+02 
95.893   6.40000000e+02 
95.857   6.95000000e+02 
95.821   6.90000000e+02 
95.785   7.34000000e+02 
95.749   7.81000000e+02 
95.713   7.19000000e+02 
95.677   7.79000000e+02 
95.641   7.44000000e+02 
95.605   7.09000000e+02 
95.570   6.98000000e+02 
95.534   6.66000000e+02 
95.498   6.70000000e+02 
95.462   5.88000000e+02 
95.426   5.42000000e+02 
95.390   5.58000000e+02 
95.354   5.03000000e+02 
95.318   4.85000000e+02 
95.282   4.57000000e+02 
95.246   3.94000000e+02 
95.210   3.53000000e+02 
95.174   2.97000000e+02 
95.138   3.20000000e+02 
95.102   2.93000000e+02 
95.066   2.62000000e+02 
95.030   2.52000000e+02 
94.995   2.19000000e+02 
94.959   1.91000000e+02 
94.923   1.94000000e+02 
94.887   2.09000000e+02 
94.851   1.93000000e+02 
94.815   1.79000000e+02 
94.779   1.32000000e+02 
94.743   1.68000000e+02 
94.707   1.64000000e+02 
94.671   1.64000000e+02 
94.635   1.57000000e+02 
94.599   1.48000000e+02 
94.563   1.45000000e+02 
94.527   1.61000000e+02 
94.491   1.39000000e+02 
94.455   1.27000000e+02 
94.420   1.42000000e+02 
94.384   1.61000000e+02 
94.348   1.44000000e+02 
94.312   1.33000000e+02 
94.276   1.31000000e+02 
94.240   1.27000000e+02 
94.204   1.40000000e+02 
94.168   1.27000000e+02 
94.132   1.29000000e+02 
94.096   1.34000000e+02 
94.060   1.20000000e+02 
94.024   1.39000000e+02 
93.988   1.34000000e+02 
93.952   1.29000000e+02 
93.916   1.47000000e+02 
93.880   1.53000000e+02 
93.845   1.40000000e+02 
93.809   1.66000000e+02 
93.773   1.37000000e+02 
93.737   1.60000000e+02 
93.701   1.63000000e+02 
93.665   1.58000000e+02 
93.629   1.58000000e+02 
93.593   1.57000000e+02 
93.557   1.60000000e+02 
93.521   1.68000000e+02 
93.485   1.67000000e+02 
93.449   1.70000000e+02 
93.413   1.77000000e+02 
93.377   1.74000000e+02 
93.341   1.89000000e+02 
93.305   1.99000000e+02 
93.270   2.08000000e+02 
93.234   2.11000000e+02 
93.198   2.38000000e+02 
93.162   2.27000000e+02 
93.126   2.63000000e+02 
93.090   2.57000000e+02 
93.054   2.76000000e+02 
93.018   3.02000000e+02 
92.982   3.05000000e+02 
92.946   3.40000000e+02 
92.910   3.25000000e+02 
92.874   3.15000000e+02 
92.838   3.40000000e+02 
92.802   3.55000000e+02 
92.766   3.73000000e+02 
92.730   4.30000000e+02 
92.695   4.57000000e+02 
92.659   4.73000000e+02 
92.623   4.83000000e+02 
92.587   4.94000000e+02 
92.551   5.51000000e+02 
92.515   5.69000000e+02 
92.479   6.16000000e+02 
92.443   6.43000000e+02 
92.407   6.54000000e+02 
92.371   6.49000000e+02 
92.335   6.92000000e+02 
92.299   7.37000000e+02 
92.263   7.93000000e+02 
92.227   7.63000000e+02 
92.191   8.41000000e+02 
92.155   8.03000000e+02 
92.120   8.98000000e+02 
92.084   9.26000000e+02 
92.048   9.03000000e+02 
92.012   8.77000000e+02 
91.976   8.83000000e+02 
91.940   8.44000000e+02 
91.904   8.77000000e+02 
91.868   8.22000000e+02 
91.832   7.89000000e+02 
91.796   7.37000000e+02 
91.760   7.41000000e+02 
91.724   6.39000000e+02 
91.688   5.67000000e+02 
91.652   5.47000000e+02 
91.616   5.07000000e+02 
91.580   4.41000000e+02 
91.545   4.10000000e+02 
91.509   3.53000000e+02 
91.473   3.35000000e+02 
91.437   2.78000000e+02 
91.401   2.76000000e+02 
91.365   2.33000000e+02 
91.329   2.27000000e+02 
91.293   1.89000000e+02 
91.257   1.71000000e+02 
91.221   1.96000000e+02 
91.185   1.63000000e+02 
91.149   1.31000000e+02 
91.113   1.32000000e+02 
91.077   1.27000000e+02 
91.041   1.41000000e+02 
91.005   1.16000000e+02 
90.970   1.15000000e+02 
90.934   1.20000000e+02 
90.898   1.05000000e+02 
90.862   9.00000000e+01 
90.826   9.10000000e+01 
90.790   9.40000000e+01 
90.754   1.00000000e+02 
90.718   9.50000000e+01 
90.682   7.80000000e+01 
90.646   9.10000000e+01 
90.610   8.40000000e+01 
90.574   8.50000000e+01 
90.538   8.30000000e+01 
90.502   8.30000000e+01 
90.466   6.90000000e+01 
90.430   6.30000000e+01 
90.395   6.70000000e+01 
90.359   7.50000000e+01 
90.323   7.00000000e+01 
90.287   7.80000000e+01 
90.251   8.00000000e+01 
90.215   6.80000000e+01 
90.179   5.60000000e+01 
90.143   6.60000000e+01 
90.107   7.90000000e+01 
90.071   7.80000000e+01 
90.035   7.10000000e+01 
89.999   6.80000000e+01 
89.963   5.70000000e+01 
89.927   5.50000000e+01 
89.891   6.40000000e+01 
89.855   5.60000000e+01 
89.820   7.10000000e+01 
89.784   6.40000000e+01 
89.748   6.80000000e+01 
89.712   6.30000000e+01 
89.676   6.50000000e+01 
89.640   7.90000000e+01 
89.604   5.50000000e+01 
89.568   7.00000000e+01 
89.532   6.20000000e+01 
89.496   5.80000000e+01 
89.460   6.00000000e+01 
89.424   6.30000000e+01 
89.388   5.80000000e+01 
89.352   6.90000000e+01 
89.316   6.30000000e+01 
89.280   5.90000000e+01 
89.245   4.90000000e+01 
89.209   5.70000000e+01 
89.173   6.20000000e+01 
89.137   5.70000000e+01 
89.101   5.10000000e+01 
89.065   6.00000000e+01 
89.029   6.40000000e+01 
88.993   5.10000000e+01 
88.957   6.40000000e+01 
88.921   4.90000000e+01 
88.885   5.70000000e+01 
88.849   5.50000000e+01 
88.813   5.20000000e+01 
88.777   6.30000000e+01 
88.741   4.90000000e+01 
88.705   5.90000000e+01 
88.670   5.00000000e+01 
88.634   7.50000000e+01 
88.598   4.70000000e+01 
88.562   5.20000000e+01 
88.526   7.00000000e+01 
88.490   5.20000000e+01 
88.454   6.40000000e+01 
88.418   5.90000000e+01 
88.382   6.00000000e+01 
88.346   5.70000000e+01 
88.310   5.30000000e+01 
88.274   7.70000000e+01 
88.238   6.60000000e+01 
88.202   5.60000000e+01 
88.166   6.40000000e+01 
88.130   5.30000000e+01 
88.095   6.20000000e+01 
88.059   5.40000000e+01 
88.023   6.10000000e+01 

