EXPERIMENT FILE
Version = 2

[ Experiment Parameters ]
Experiment Description= <none> 
Number_of_Regions_in_Experiment= 1 

Original_File_name= C:\alexesca\data\10312012_Au _4f_57nuetral-37_Mono275.xps 
Instrument= HP ESCA West
Date= 10-31-2012
Time=  16:08:13

[ Layer Parameters ]
Layer_Type= XPS

[ Region 1 Parameters ]
Region_Description = Au 4f Dithered Scan                
BEcenter(eV) = 93.000000
BEwidth(eV) = 10.000000
BEstep(eV) = 0.035937
Dwell_Time(sec) = 1.000000
N_o_scans = 1  
N_o_Channels = 278  
Scan_mode = 0  (DITHERED)

[ L= 1 R= 1 ]
BEcenter= 93.000  
BEwidth= -9.955  
Excitation= 1486.600
Time_p_channel= 256.000 
Size= 278
97.977   6.50000000e+01 
97.941   7.70000000e+01 
97.905   6.40000000e+01 
97.870   7.10000000e+01 
97.834   6.70000000e+01 
97.798   6.50000000e+01 
97.762   6.50000000e+01 
97.726   7.20000000e+01 
97.690   7.80000000e+01 
97.654   6.90000000e+01 
97.618   7.60000000e+01 
97.582   6.40000000e+01 
97.546   6.60000000e+01 
97.510   7.10000000e+01 
97.474   7.00000000e+01 
97.438   7.40000000e+01 
97.402   7.30000000e+01 
97.366   5.10000000e+01 
97.330   7.60000000e+01 
97.295   6.80000000e+01 
97.259   7.50000000e+01 
97.223   6.90000000e+01 
97.187   7.00000000e+01 
97.151   7.70000000e+01 
97.115   7.90000000e+01 
97.079   8.70000000e+01 
97.043   9.50000000e+01 
97.007   8.70000000e+01 
96.971   1.04000000e+02 
96.935   8.70000000e+01 
96.899   1.05000000e+02 
96.863   1.31000000e+02 
96.827   1.05000000e+02 
96.791   8.40000000e+01 
96.755   1.22000000e+02 
96.720   1.27000000e+02 
96.684   1.17000000e+02 
96.648   1.07000000e+02 
96.612   1.04000000e+02 
96.576   1.31000000e+02 
96.540   1.37000000e+02 
96.504   1.55000000e+02 
96.468   1.71000000e+02 
96.432   1.73000000e+02 
96.396   1.98000000e+02 
96.360   1.68000000e+02 
96.324   1.84000000e+02 
96.288   2.00000000e+02 
96.252   2.16000000e+02 
96.216   2.17000000e+02 
96.180   2.19000000e+02 
96.145   2.47000000e+02 
96.109   2.80000000e+02 
96.073   2.52000000e+02 
96.037   2.78000000e+02 
96.001   3.10000000e+02 
95.965   3.12000000e+02 
95.929   3.26000000e+02 
95.893   3.58000000e+02 
95.857   3.49000000e+02 
95.821   3.48000000e+02 
95.785   3.54000000e+02 
95.749   3.44000000e+02 
95.713   3.45000000e+02 
95.677   3.24000000e+02 
95.641   3.38000000e+02 
95.605   3.62000000e+02 
95.570   3.33000000e+02 
95.534   2.70000000e+02 
95.498   2.97000000e+02 
95.462   3.10000000e+02 
95.426   2.83000000e+02 
95.390   2.73000000e+02 
95.354   2.21000000e+02 
95.318   2.35000000e+02 
95.282   1.99000000e+02 
95.246   1.85000000e+02 
95.210   1.77000000e+02 
95.174   1.48000000e+02 
95.138   1.34000000e+02 
95.102   1.27000000e+02 
95.066   1.37000000e+02 
95.030   1.13000000e+02 
94.995   9.70000000e+01 
94.959   9.40000000e+01 
94.923   8.80000000e+01 
94.887   9.40000000e+01 
94.851   7.40000000e+01 
94.815   8.60000000e+01 
94.779   8.70000000e+01 
94.743   8.10000000e+01 
94.707   9.60000000e+01 
94.671   8.30000000e+01 
94.635   7.10000000e+01 
94.599   5.50000000e+01 
94.563   6.60000000e+01 
94.527   7.20000000e+01 
94.491   8.40000000e+01 
94.455   6.40000000e+01 
94.420   5.70000000e+01 
94.384   6.20000000e+01 
94.348   6.30000000e+01 
94.312   7.00000000e+01 
94.276   5.70000000e+01 
94.240   6.70000000e+01 
94.204   6.90000000e+01 
94.168   5.90000000e+01 
94.132   6.30000000e+01 
94.096   6.60000000e+01 
94.060   7.40000000e+01 
94.024   7.50000000e+01 
93.988   7.30000000e+01 
93.952   7.00000000e+01 
93.916   6.60000000e+01 
93.880   5.20000000e+01 
93.845   5.90000000e+01 
93.809   7.30000000e+01 
93.773   7.30000000e+01 
93.737   7.40000000e+01 
93.701   8.40000000e+01 
93.665   6.40000000e+01 
93.629   6.90000000e+01 
93.593   6.30000000e+01 
93.557   7.40000000e+01 
93.521   7.70000000e+01 
93.485   8.80000000e+01 
93.449   8.10000000e+01 
93.413   8.10000000e+01 
93.377   8.70000000e+01 
93.341   7.70000000e+01 
93.305   8.90000000e+01 
93.270   9.00000000e+01 
93.234   9.10000000e+01 
93.198   9.70000000e+01 
93.162   9.60000000e+01 
93.126   1.13000000e+02 
93.090   1.01000000e+02 
93.054   1.03000000e+02 
93.018   1.11000000e+02 
92.982   1.41000000e+02 
92.946   1.53000000e+02 
92.910   1.55000000e+02 
92.874   1.55000000e+02 
92.838   1.60000000e+02 
92.802   1.78000000e+02 
92.766   1.77000000e+02 
92.730   2.11000000e+02 
92.695   2.10000000e+02 
92.659   2.20000000e+02 
92.623   2.28000000e+02 
92.587   2.13000000e+02 
92.551   2.82000000e+02 
92.515   2.51000000e+02 
92.479   2.68000000e+02 
92.443   3.03000000e+02 
92.407   3.26000000e+02 
92.371   3.45000000e+02 
92.335   3.60000000e+02 
92.299   3.56000000e+02 
92.263   3.54000000e+02 
92.227   4.00000000e+02 
92.191   4.14000000e+02 
92.155   4.03000000e+02 
92.120   3.91000000e+02 
92.084   4.48000000e+02 
92.048   4.43000000e+02 
92.012   4.11000000e+02 
91.976   4.35000000e+02 
91.940   4.01000000e+02 
91.904   4.05000000e+02 
91.868   3.89000000e+02 
91.832   3.72000000e+02 
91.796   2.99000000e+02 
91.760   3.16000000e+02 
91.724   2.90000000e+02 
91.688   2.67000000e+02 
91.652   2.44000000e+02 
91.616   2.01000000e+02 
91.580   2.15000000e+02 
91.545   1.74000000e+02 
91.509   1.52000000e+02 
91.473   1.47000000e+02 
91.437   1.23000000e+02 
91.401   1.18000000e+02 
91.365   1.13000000e+02 
91.329   1.03000000e+02 
91.293   9.50000000e+01 
91.257   9.30000000e+01 
91.221   8.80000000e+01 
91.185   6.30000000e+01 
91.149   7.10000000e+01 
91.113   5.70000000e+01 
91.077   7.00000000e+01 
91.041   6.10000000e+01 
91.005   5.30000000e+01 
90.970   4.70000000e+01 
90.934   5.10000000e+01 
90.898   4.60000000e+01 
90.862   4.80000000e+01 
90.826   5.60000000e+01 
90.790   6.00000000e+01 
90.754   5.90000000e+01 
90.718   5.10000000e+01 
90.682   5.00000000e+01 
90.646   4.80000000e+01 
90.610   4.70000000e+01 
90.574   3.60000000e+01 
90.538   3.60000000e+01 
90.502   3.80000000e+01 
90.466   4.90000000e+01 
90.430   3.90000000e+01 
90.395   3.50000000e+01 
90.359   3.40000000e+01 
90.323   4.90000000e+01 
90.287   4.40000000e+01 
90.251   4.10000000e+01 
90.215   3.80000000e+01 
90.179   4.80000000e+01 
90.143   5.10000000e+01 
90.107   3.60000000e+01 
90.071   5.50000000e+01 
90.035   3.80000000e+01 
89.999   2.60000000e+01 
89.963   3.30000000e+01 
89.927   3.50000000e+01 
89.891   2.90000000e+01 
89.855   4.40000000e+01 
89.820   4.50000000e+01 
89.784   2.70000000e+01 
89.748   3.70000000e+01 
89.712   3.10000000e+01 
89.676   3.10000000e+01 
89.640   3.30000000e+01 
89.604   3.10000000e+01 
89.568   2.70000000e+01 
89.532   4.10000000e+01 
89.496   3.30000000e+01 
89.460   2.50000000e+01 
89.424   3.70000000e+01 
89.388   4.10000000e+01 
89.352   3.50000000e+01 
89.316   4.20000000e+01 
89.280   3.80000000e+01 
89.245   3.00000000e+01 
89.209   3.00000000e+01 
89.173   2.20000000e+01 
89.137   3.10000000e+01 
89.101   3.90000000e+01 
89.065   2.40000000e+01 
89.029   2.40000000e+01 
88.993   3.40000000e+01 
88.957   1.90000000e+01 
88.921   3.70000000e+01 
88.885   4.10000000e+01 
88.849   3.00000000e+01 
88.813   3.40000000e+01 
88.777   3.30000000e+01 
88.741   2.70000000e+01 
88.705   3.00000000e+01 
88.670   3.00000000e+01 
88.634   2.70000000e+01 
88.598   3.70000000e+01 
88.562   3.40000000e+01 
88.526   4.20000000e+01 
88.490   2.60000000e+01 
88.454   3.30000000e+01 
88.418   2.80000000e+01 
88.382   3.80000000e+01 
88.346   3.70000000e+01 
88.310   3.00000000e+01 
88.274   3.00000000e+01 
88.238   3.50000000e+01 
88.202   3.20000000e+01 
88.166   3.00000000e+01 
88.130   2.30000000e+01 
88.095   3.00000000e+01 
88.059   3.00000000e+01 
88.023   2.40000000e+01 

