EXPERIMENT FILE
Version = 2

[ Experiment Parameters ]
Experiment Description= <none> 
Number_of_Regions_in_Experiment= 1 

Original_File_name= C:\alexesca\data\11012012_Au _4f_57nuetral-27_Mono276.xps 
Instrument= HP ESCA West
Date= 11-01-2012
Time=  14:41:12

[ Layer Parameters ]
Layer_Type= XPS

[ Region 1 Parameters ]
Region_Description = Au 4f Dithered Scan                
BEcenter(eV) = 93.000000
BEwidth(eV) = 10.000000
BEstep(eV) = 0.035937
Dwell_Time(sec) = 1.000000
N_o_scans = 1  
N_o_Channels = 278  
Scan_mode = 0  (DITHERED)

[ L= 1 R= 1 ]
BEcenter= 93.000  
BEwidth= -9.955  
Excitation= 1486.600
Time_p_channel= 256.000 
Size= 278
97.977   1.48000000e+02 
97.941   1.41000000e+02 
97.905   1.32000000e+02 
97.870   1.50000000e+02 
97.834   1.32000000e+02 
97.798   1.44000000e+02 
97.762   1.37000000e+02 
97.726   1.38000000e+02 
97.690   1.60000000e+02 
97.654   1.31000000e+02 
97.618   1.73000000e+02 
97.582   1.44000000e+02 
97.546   1.35000000e+02 
97.510   1.51000000e+02 
97.474   1.32000000e+02 
97.438   1.56000000e+02 
97.402   1.35000000e+02 
97.366   1.55000000e+02 
97.330   1.56000000e+02 
97.295   1.43000000e+02 
97.259   1.67000000e+02 
97.223   1.48000000e+02 
97.187   1.61000000e+02 
97.151   1.66000000e+02 
97.115   1.57000000e+02 
97.079   1.74000000e+02 
97.043   1.62000000e+02 
97.007   1.41000000e+02 
96.971   2.11000000e+02 
96.935   1.96000000e+02 
96.899   1.86000000e+02 
96.863   2.06000000e+02 
96.827   2.06000000e+02 
96.791   2.23000000e+02 
96.755   2.18000000e+02 
96.720   2.22000000e+02 
96.684   2.27000000e+02 
96.648   2.27000000e+02 
96.612   2.59000000e+02 
96.576   2.27000000e+02 
96.540   2.71000000e+02 
96.504   2.74000000e+02 
96.468   2.97000000e+02 
96.432   3.22000000e+02 
96.396   3.18000000e+02 
96.360   3.32000000e+02 
96.324   3.23000000e+02 
96.288   4.04000000e+02 
96.252   3.78000000e+02 
96.216   4.38000000e+02 
96.180   3.83000000e+02 
96.145   4.39000000e+02 
96.109   4.29000000e+02 
96.073   4.62000000e+02 
96.037   4.69000000e+02 
96.001   5.17000000e+02 
95.965   5.49000000e+02 
95.929   5.29000000e+02 
95.893   5.89000000e+02 
95.857   5.67000000e+02 
95.821   6.24000000e+02 
95.785   6.33000000e+02 
95.749   7.01000000e+02 
95.713   7.19000000e+02 
95.677   6.98000000e+02 
95.641   7.35000000e+02 
95.605   7.49000000e+02 
95.570   7.18000000e+02 
95.534   7.81000000e+02 
95.498   8.10000000e+02 
95.462   7.60000000e+02 
95.426   7.45000000e+02 
95.390   7.59000000e+02 
95.354   6.93000000e+02 
95.318   6.51000000e+02 
95.282   6.56000000e+02 
95.246   6.36000000e+02 
95.210   5.30000000e+02 
95.174   5.08000000e+02 
95.138   4.79000000e+02 
95.102   4.52000000e+02 
95.066   3.95000000e+02 
95.030   3.75000000e+02 
94.995   3.35000000e+02 
94.959   3.39000000e+02 
94.923   2.90000000e+02 
94.887   2.41000000e+02 
94.851   2.64000000e+02 
94.815   2.44000000e+02 
94.779   2.03000000e+02 
94.743   2.05000000e+02 
94.707   1.95000000e+02 
94.671   1.82000000e+02 
94.635   1.67000000e+02 
94.599   1.76000000e+02 
94.563   1.85000000e+02 
94.527   1.40000000e+02 
94.491   1.40000000e+02 
94.455   1.68000000e+02 
94.420   1.53000000e+02 
94.384   1.35000000e+02 
94.348   1.54000000e+02 
94.312   1.32000000e+02 
94.276   1.23000000e+02 
94.240   1.25000000e+02 
94.204   1.30000000e+02 
94.168   1.31000000e+02 
94.132   1.22000000e+02 
94.096   1.51000000e+02 
94.060   1.35000000e+02 
94.024   1.49000000e+02 
93.988   1.32000000e+02 
93.952   1.46000000e+02 
93.916   1.66000000e+02 
93.880   1.35000000e+02 
93.845   1.33000000e+02 
93.809   1.61000000e+02 
93.773   1.50000000e+02 
93.737   1.31000000e+02 
93.701   1.37000000e+02 
93.665   1.40000000e+02 
93.629   1.32000000e+02 
93.593   1.42000000e+02 
93.557   1.52000000e+02 
93.521   1.50000000e+02 
93.485   1.72000000e+02 
93.449   1.72000000e+02 
93.413   1.69000000e+02 
93.377   1.47000000e+02 
93.341   1.89000000e+02 
93.305   1.92000000e+02 
93.270   1.75000000e+02 
93.234   2.05000000e+02 
93.198   1.65000000e+02 
93.162   1.98000000e+02 
93.126   2.10000000e+02 
93.090   2.26000000e+02 
93.054   2.19000000e+02 
93.018   2.17000000e+02 
92.982   2.33000000e+02 
92.946   2.65000000e+02 
92.910   2.32000000e+02 
92.874   3.18000000e+02 
92.838   2.90000000e+02 
92.802   3.25000000e+02 
92.766   3.16000000e+02 
92.730   3.81000000e+02 
92.695   3.84000000e+02 
92.659   3.94000000e+02 
92.623   3.82000000e+02 
92.587   4.09000000e+02 
92.551   4.52000000e+02 
92.515   4.38000000e+02 
92.479   4.90000000e+02 
92.443   5.23000000e+02 
92.407   5.22000000e+02 
92.371   5.10000000e+02 
92.335   5.90000000e+02 
92.299   5.93000000e+02 
92.263   6.91000000e+02 
92.227   6.69000000e+02 
92.191   6.94000000e+02 
92.155   7.22000000e+02 
92.120   7.46000000e+02 
92.084   7.62000000e+02 
92.048   7.90000000e+02 
92.012   8.23000000e+02 
91.976   8.29000000e+02 
91.940   8.86000000e+02 
91.904   8.91000000e+02 
91.868   9.23000000e+02 
91.832   9.05000000e+02 
91.796   8.85000000e+02 
91.760   9.45000000e+02 
91.724   8.67000000e+02 
91.688   8.19000000e+02 
91.652   7.69000000e+02 
91.616   7.04000000e+02 
91.580   6.88000000e+02 
91.545   6.88000000e+02 
91.509   5.98000000e+02 
91.473   5.29000000e+02 
91.437   4.88000000e+02 
91.401   4.11000000e+02 
91.365   3.60000000e+02 
91.329   3.42000000e+02 
91.293   3.16000000e+02 
91.257   2.71000000e+02 
91.221   2.24000000e+02 
91.185   2.22000000e+02 
91.149   2.13000000e+02 
91.113   2.01000000e+02 
91.077   1.60000000e+02 
91.041   1.66000000e+02 
91.005   1.48000000e+02 
90.970   1.62000000e+02 
90.934   1.38000000e+02 
90.898   1.17000000e+02 
90.862   1.31000000e+02 
90.826   1.05000000e+02 
90.790   1.13000000e+02 
90.754   1.09000000e+02 
90.718   1.12000000e+02 
90.682   1.06000000e+02 
90.646   1.04000000e+02 
90.610   9.40000000e+01 
90.574   8.50000000e+01 
90.538   8.50000000e+01 
90.502   8.60000000e+01 
90.466   8.80000000e+01 
90.430   9.10000000e+01 
90.395   7.40000000e+01 
90.359   7.50000000e+01 
90.323   7.90000000e+01 
90.287   9.50000000e+01 
90.251   7.00000000e+01 
90.215   6.30000000e+01 
90.179   7.80000000e+01 
90.143   8.70000000e+01 
90.107   8.80000000e+01 
90.071   9.00000000e+01 
90.035   6.20000000e+01 
89.999   5.90000000e+01 
89.963   5.30000000e+01 
89.927   6.90000000e+01 
89.891   7.20000000e+01 
89.855   6.90000000e+01 
89.820   7.20000000e+01 
89.784   6.80000000e+01 
89.748   6.60000000e+01 
89.712   7.80000000e+01 
89.676   7.10000000e+01 
89.640   7.30000000e+01 
89.604   5.70000000e+01 
89.568   6.30000000e+01 
89.532   6.70000000e+01 
89.496   6.70000000e+01 
89.460   6.70000000e+01 
89.424   6.10000000e+01 
89.388   6.70000000e+01 
89.352   6.50000000e+01 
89.316   5.20000000e+01 
89.280   6.40000000e+01 
89.245   6.00000000e+01 
89.209   6.10000000e+01 
89.173   6.80000000e+01 
89.137   6.40000000e+01 
89.101   7.80000000e+01 
89.065   6.80000000e+01 
89.029   5.40000000e+01 
88.993   6.90000000e+01 
88.957   6.60000000e+01 
88.921   5.70000000e+01 
88.885   6.40000000e+01 
88.849   5.20000000e+01 
88.813   6.10000000e+01 
88.777   5.90000000e+01 
88.741   5.50000000e+01 
88.705   6.10000000e+01 
88.670   5.70000000e+01 
88.634   5.80000000e+01 
88.598   6.20000000e+01 
88.562   6.20000000e+01 
88.526   7.00000000e+01 
88.490   5.50000000e+01 
88.454   5.80000000e+01 
88.418   5.00000000e+01 
88.382   5.70000000e+01 
88.346   5.60000000e+01 
88.310   5.90000000e+01 
88.274   5.20000000e+01 
88.238   5.40000000e+01 
88.202   5.90000000e+01 
88.166   6.50000000e+01 
88.130   6.70000000e+01 
88.095   5.50000000e+01 
88.059   6.30000000e+01 
88.023   7.10000000e+01 

