EXPERIMENT FILE
Version = 2

[ Experiment Parameters ]
Experiment Description= <none> 
Number_of_Regions_in_Experiment= 1 

Original_File_name= C:\alexesca\data\11162012 Au 4f Peak Seperation.xps 
Instrument= HP ESCA West
Date= 11-16-2012
Time=  15:44:59

[ Layer Parameters ]
Layer_Type= XPS

[ Region 1 Parameters ]
Region_Description = Au 4f .14375eV step 4sec dwell
BEcenter(eV) = 93.000000
BEwidth(eV) = 12.000000
BEstep(eV) = 0.143750
Dwell_Time(sec) = 4.000000
N_o_scans = 1  
N_o_Channels = 83  
Scan_mode = 0  (DITHERED)

[ L= 1 R= 1 ]
BEcenter= 93.000  
BEwidth= -11.787 
Excitation= 1486.600
Time_p_channel= 256.000 
Size= 83
98.894   8.55000000e+02 
98.750   8.00000000e+02 
98.606   7.72000000e+02 
98.462   8.57000000e+02 
98.319   8.41000000e+02 
98.175   8.34000000e+02 
98.031   8.36000000e+02 
97.888   8.45000000e+02 
97.744   9.04000000e+02 
97.600   8.70000000e+02 
97.456   9.16000000e+02 
97.312   9.06000000e+02 
97.169   9.38000000e+02 
97.025   9.50000000e+02 
96.881   9.74000000e+02 
96.737   1.08000000e+03 
96.594   1.24400000e+03 
96.450   1.34900000e+03 
96.306   1.54000000e+03 
96.162   1.83400000e+03 
96.019   2.16100000e+03 
95.875   2.56200000e+03 
95.731   3.13200000e+03 
95.588   3.81000000e+03 
95.444   4.33200000e+03 
95.300   4.82100000e+03 
95.156   4.44200000e+03 
95.013   3.72100000e+03 
94.869   2.82300000e+03 
94.725   1.93400000e+03 
94.581   1.47200000e+03 
94.438   1.16900000e+03 
94.294   1.05300000e+03 
94.150   9.09000000e+02 
94.006   9.65000000e+02 
93.862   8.44000000e+02 
93.719   8.63000000e+02 
93.575   8.27000000e+02 
93.431   8.70000000e+02 
93.287   9.55000000e+02 
93.144   9.64000000e+02 
93.000   1.03400000e+03 
92.856   1.17000000e+03 
92.713   1.38100000e+03 
92.569   1.60300000e+03 
92.425   1.98200000e+03 
92.281   2.44900000e+03 
92.138   3.04100000e+03 
91.994   3.82200000e+03 
91.850   4.63600000e+03 
91.706   5.23700000e+03 
91.562   5.59100000e+03 
91.419   5.15200000e+03 
91.275   4.09300000e+03 
91.131   2.88500000e+03 
90.987   1.83600000e+03 
90.844   1.20400000e+03 
90.700   9.27000000e+02 
90.556   7.63000000e+02 
90.412   6.53000000e+02 
90.269   5.51000000e+02 
90.125   5.02000000e+02 
89.981   4.97000000e+02 
89.838   4.94000000e+02 
89.694   4.46000000e+02 
89.550   4.74000000e+02 
89.406   4.23000000e+02 
89.263   3.99000000e+02 
89.119   4.08000000e+02 
88.975   3.88000000e+02 
88.831   4.29000000e+02 
88.688   4.02000000e+02 
88.544   3.70000000e+02 
88.400   3.53000000e+02 
88.256   4.46000000e+02 
88.112   4.02000000e+02 
87.969   4.10000000e+02 
87.825   4.21000000e+02 
87.681   3.88000000e+02 
87.538   4.21000000e+02 
87.394   4.26000000e+02 
87.250   3.96000000e+02 
87.106   4.11000000e+02 

