EXPERIMENT FILE
Version = 2

[ Experiment Parameters ]
Experiment Description= <none> 
Number_of_Regions_in_Experiment= 1 

Original_File_name= C:\alexesca\data\11162012 Cu 2p Peak Seperation.xps 
Instrument= HP ESCA West
Date= 11-16-2012
Time=  17:16:44

[ Layer Parameters ]
Layer_Type= XPS

[ Region 1 Parameters ]
Region_Description = Cu 2p .14375eV step 4sec dwell
BEcenter(eV) = 950.000000
BEwidth(eV) = 40.000000
BEstep(eV) = 0.143750
Dwell_Time(sec) = 4.000000
N_o_scans = 1  
N_o_Channels = 278  
Scan_mode = 0  (DITHERED)

[ L= 1 R= 1 ]
BEcenter= 950.000 
BEwidth= -39.819 
Excitation= 1486.600
Time_p_channel= 256.000 
Size= 278
969.909  4.97300000e+03 
969.766  4.92400000e+03 
969.622  4.87600000e+03 
969.478  4.94000000e+03 
969.334  4.95900000e+03 
969.191  4.95600000e+03 
969.047  4.87300000e+03 
968.903  4.80800000e+03 
968.759  4.89700000e+03 
968.616  4.80400000e+03 
968.472  4.86400000e+03 
968.328  4.73400000e+03 
968.184  4.82600000e+03 
968.041  4.78700000e+03 
967.897  4.81300000e+03 
967.753  4.71200000e+03 
967.609  4.74500000e+03 
967.466  4.78800000e+03 
967.322  4.77600000e+03 
967.178  4.67500000e+03 
967.034  4.68400000e+03 
966.891  4.71100000e+03 
966.747  4.71800000e+03 
966.603  4.73400000e+03 
966.459  4.72300000e+03 
966.316  4.59100000e+03 
966.172  4.60200000e+03 
966.028  4.76500000e+03 
965.884  4.71200000e+03 
965.741  4.56800000e+03 
965.597  4.47400000e+03 
965.453  4.72700000e+03 
965.309  4.66900000e+03 
965.166  4.63400000e+03 
965.022  4.73400000e+03 
964.878  4.66700000e+03 
964.734  4.77600000e+03 
964.591  4.76200000e+03 
964.447  4.87700000e+03 
964.303  4.81800000e+03 
964.159  4.98500000e+03 
964.016  4.93800000e+03 
963.872  5.01700000e+03 
963.728  4.94000000e+03 
963.584  5.05600000e+03 
963.441  5.00400000e+03 
963.297  5.21100000e+03 
963.153  5.07800000e+03 
963.009  5.15600000e+03 
962.866  5.20200000e+03 
962.722  5.13600000e+03 
962.578  5.22100000e+03 
962.434  5.17900000e+03 
962.291  4.96400000e+03 
962.147  5.06100000e+03 
962.003  4.96400000e+03 
961.859  4.85600000e+03 
961.716  4.79100000e+03 
961.572  4.69500000e+03 
961.428  4.81400000e+03 
961.284  4.62900000e+03 
961.141  4.53500000e+03 
960.997  4.51500000e+03 
960.853  4.53400000e+03 
960.709  4.55800000e+03 
960.566  4.44400000e+03 
960.422  4.33500000e+03 
960.278  4.41100000e+03 
960.134  4.32800000e+03 
959.991  4.27000000e+03 
959.847  4.39000000e+03 
959.703  4.26200000e+03 
959.559  4.15400000e+03 
959.416  4.29500000e+03 
959.272  4.15400000e+03 
959.128  4.09100000e+03 
958.984  4.15600000e+03 
958.841  4.09300000e+03 
958.697  4.06900000e+03 
958.553  4.15400000e+03 
958.409  4.13700000e+03 
958.266  4.02600000e+03 
958.122  3.99100000e+03 
957.978  4.13400000e+03 
957.834  4.03500000e+03 
957.691  4.08700000e+03 
957.547  4.03200000e+03 
957.403  4.00000000e+03 
957.259  4.07200000e+03 
957.116  4.00600000e+03 
956.972  4.02800000e+03 
956.828  4.01600000e+03 
956.684  3.98800000e+03 
956.541  4.06900000e+03 
956.397  3.90500000e+03 
956.253  3.92100000e+03 
956.109  3.98800000e+03 
955.966  3.92300000e+03 
955.822  3.88700000e+03 
955.678  3.99300000e+03 
955.534  3.89300000e+03 
955.391  3.98600000e+03 
955.247  3.88900000e+03 
955.103  4.00800000e+03 
954.959  3.99300000e+03 
954.816  4.00800000e+03 
954.672  4.00200000e+03 
954.528  4.08000000e+03 
954.384  4.11400000e+03 
954.241  4.14700000e+03 
954.097  4.07400000e+03 
953.953  4.22000000e+03 
953.809  4.18200000e+03 
953.666  4.22200000e+03 
953.522  4.18000000e+03 
953.378  4.44600000e+03 
953.234  4.35300000e+03 
953.091  4.44400000e+03 
952.947  4.48700000e+03 
952.803  4.60800000e+03 
952.659  4.63300000e+03 
952.516  4.53300000e+03 
952.372  4.60900000e+03 
952.228  4.65000000e+03 
952.084  4.63600000e+03 
951.941  4.41900000e+03 
951.797  4.54700000e+03 
951.653  4.50500000e+03 
951.509  4.57900000e+03 
951.366  4.45100000e+03 
951.222  4.56500000e+03 
951.078  4.45100000e+03 
950.934  4.45700000e+03 
950.791  4.48700000e+03 
950.647  4.49600000e+03 
950.503  4.43800000e+03 
950.359  4.35900000e+03 
950.216  4.50900000e+03 
950.072  4.45300000e+03 
949.928  4.41800000e+03 
949.784  4.52700000e+03 
949.641  4.41600000e+03 
949.497  4.51600000e+03 
949.353  4.41800000e+03 
949.209  4.49200000e+03 
949.066  4.35500000e+03 
948.922  4.45000000e+03 
948.778  4.42500000e+03 
948.634  4.35000000e+03 
948.491  4.31300000e+03 
948.347  4.45700000e+03 
948.203  4.38600000e+03 
948.059  4.44900000e+03 
947.916  4.33900000e+03 
947.772  4.34400000e+03 
947.628  4.32300000e+03 
947.484  4.26100000e+03 
947.341  4.30900000e+03 
947.197  4.26900000e+03 
947.053  4.10300000e+03 
946.909  4.19900000e+03 
946.766  4.07700000e+03 
946.622  4.09700000e+03 
946.478  4.20800000e+03 
946.334  4.14300000e+03 
946.191  4.13000000e+03 
946.047  4.15100000e+03 
945.903  4.21500000e+03 
945.759  4.11300000e+03 
945.616  4.11700000e+03 
945.472  4.22700000e+03 
945.328  4.23300000e+03 
945.184  4.16400000e+03 
945.041  4.34600000e+03 
944.897  4.32600000e+03 
944.753  4.37200000e+03 
944.609  4.40900000e+03 
944.466  4.43700000e+03 
944.322  4.58700000e+03 
944.178  4.67300000e+03 
944.034  4.81800000e+03 
943.891  4.84900000e+03 
943.747  4.94700000e+03 
943.603  5.01600000e+03 
943.459  5.28100000e+03 
943.316  5.32000000e+03 
943.172  5.41200000e+03 
943.028  5.58100000e+03 
942.884  5.49500000e+03 
942.741  5.60900000e+03 
942.597  5.51800000e+03 
942.453  5.44200000e+03 
942.309  5.29400000e+03 
942.166  5.31100000e+03 
942.022  5.07100000e+03 
941.878  4.82500000e+03 
941.734  4.70700000e+03 
941.591  4.53600000e+03 
941.447  4.51400000e+03 
941.303  4.39500000e+03 
941.159  4.36400000e+03 
941.016  4.26400000e+03 
940.872  4.16700000e+03 
940.728  4.11400000e+03 
940.584  4.09400000e+03 
940.441  4.14500000e+03 
940.297  4.09100000e+03 
940.153  4.05600000e+03 
940.009  4.05500000e+03 
939.866  3.96500000e+03 
939.722  3.91900000e+03 
939.578  3.81600000e+03 
939.434  3.67700000e+03 
939.291  3.70400000e+03 
939.147  3.56000000e+03 
939.003  3.54300000e+03 
938.859  3.55500000e+03 
938.716  3.43700000e+03 
938.572  3.47600000e+03 
938.428  3.49400000e+03 
938.284  3.48800000e+03 
938.141  3.47900000e+03 
937.997  3.37300000e+03 
937.853  3.47300000e+03 
937.709  3.47600000e+03 
937.566  3.50400000e+03 
937.422  3.51500000e+03 
937.278  3.54900000e+03 
937.134  3.53300000e+03 
936.991  3.53900000e+03 
936.847  3.45700000e+03 
936.703  3.44100000e+03 
936.559  3.39500000e+03 
936.416  3.50000000e+03 
936.272  3.45200000e+03 
936.128  3.41500000e+03 
935.984  3.41600000e+03 
935.841  3.53000000e+03 
935.697  3.51500000e+03 
935.553  3.55600000e+03 
935.409  3.48700000e+03 
935.266  3.44600000e+03 
935.122  3.46300000e+03 
934.978  3.40400000e+03 
934.834  3.47500000e+03 
934.691  3.46900000e+03 
934.547  3.30400000e+03 
934.403  3.47700000e+03 
934.259  3.48200000e+03 
934.116  3.38900000e+03 
933.972  3.47800000e+03 
933.828  3.42900000e+03 
933.684  3.42500000e+03 
933.541  3.38200000e+03 
933.397  3.41500000e+03 
933.253  3.42400000e+03 
933.109  3.49300000e+03 
932.966  3.39300000e+03 
932.822  3.49900000e+03 
932.678  3.47000000e+03 
932.534  3.44800000e+03 
932.391  3.40100000e+03 
932.247  3.47700000e+03 
932.103  3.40300000e+03 
931.959  3.37200000e+03 
931.816  3.37900000e+03 
931.672  3.48400000e+03 
931.528  3.45900000e+03 
931.384  3.49200000e+03 
931.241  3.38500000e+03 
931.097  3.43600000e+03 
930.953  3.39000000e+03 
930.809  3.42800000e+03 
930.666  3.54400000e+03 
930.522  3.47400000e+03 
930.378  3.52100000e+03 
930.234  3.44400000e+03 
930.091  3.22700000e+03 

