EXPERIMENT FILE
Version = 2

[ Experiment Parameters ]
Experiment Description= <none> 
Number_of_Regions_in_Experiment= 1 

Original_File_name= C:\alexesca\data\10312012_Au _4f_57nuetral-36_Mono276.xps 
Instrument= HP ESCA West
Date= 11-30-2012
Time=  13:36:05

[ Layer Parameters ]
Layer_Type= XPS

[ Region 1 Parameters ]
Region_Description = Au 4f Dithered Scan                
BEcenter(eV) = 93.000000
BEwidth(eV) = 10.000000
BEstep(eV) = 0.035937
Dwell_Time(sec) = 1.000000
N_o_scans = 1  
N_o_Channels = 278  
Scan_mode = 0  (DITHERED)

[ L= 1 R= 1 ]
BEcenter= 93.000  
BEwidth= -9.955  
Excitation= 1486.600
Time_p_channel= 256.000 
Size= 278
97.977   1.41000000e+02 
97.941   1.74000000e+02 
97.905   1.72000000e+02 
97.870   1.81000000e+02 
97.834   1.72000000e+02 
97.798   1.66000000e+02 
97.762   1.57000000e+02 
97.726   1.61000000e+02 
97.690   1.80000000e+02 
97.654   1.85000000e+02 
97.618   1.81000000e+02 
97.582   1.63000000e+02 
97.546   1.64000000e+02 
97.510   1.83000000e+02 
97.474   1.67000000e+02 
97.438   1.67000000e+02 
97.402   1.55000000e+02 
97.366   1.87000000e+02 
97.330   1.65000000e+02 
97.295   1.68000000e+02 
97.259   1.75000000e+02 
97.223   1.68000000e+02 
97.187   1.83000000e+02 
97.151   1.87000000e+02 
97.115   1.87000000e+02 
97.079   1.66000000e+02 
97.043   1.80000000e+02 
97.007   1.85000000e+02 
96.971   1.90000000e+02 
96.935   1.91000000e+02 
96.899   1.76000000e+02 
96.863   1.86000000e+02 
96.827   1.67000000e+02 
96.791   1.94000000e+02 
96.755   1.88000000e+02 
96.720   1.89000000e+02 
96.684   1.98000000e+02 
96.648   1.79000000e+02 
96.612   1.71000000e+02 
96.576   1.84000000e+02 
96.540   1.95000000e+02 
96.504   1.96000000e+02 
96.468   2.30000000e+02 
96.432   1.98000000e+02 
96.396   1.72000000e+02 
96.360   2.27000000e+02 
96.324   2.23000000e+02 
96.288   2.28000000e+02 
96.252   2.12000000e+02 
96.216   2.23000000e+02 
96.180   2.37000000e+02 
96.145   2.63000000e+02 
96.109   2.45000000e+02 
96.073   2.38000000e+02 
96.037   2.94000000e+02 
96.001   2.52000000e+02 
95.965   2.81000000e+02 
95.929   2.84000000e+02 
95.893   2.83000000e+02 
95.857   2.83000000e+02 
95.821   3.10000000e+02 
95.785   3.43000000e+02 
95.749   3.47000000e+02 
95.713   3.49000000e+02 
95.677   3.66000000e+02 
95.641   3.65000000e+02 
95.605   4.55000000e+02 
95.570   4.01000000e+02 
95.534   4.67000000e+02 
95.498   4.68000000e+02 
95.462   5.46000000e+02 
95.426   4.74000000e+02 
95.390   5.65000000e+02 
95.354   5.85000000e+02 
95.318   6.09000000e+02 
95.282   6.04000000e+02 
95.246   6.50000000e+02 
95.210   6.95000000e+02 
95.174   7.33000000e+02 
95.138   7.77000000e+02 
95.102   8.15000000e+02 
95.066   7.71000000e+02 
95.030   8.53000000e+02 
94.995   8.82000000e+02 
94.959   9.00000000e+02 
94.923   9.51000000e+02 
94.887   9.91000000e+02 
94.851   9.74000000e+02 
94.815   9.61000000e+02 
94.779   8.93000000e+02 
94.743   9.23000000e+02 
94.707   8.90000000e+02 
94.671   8.64000000e+02 
94.635   8.28000000e+02 
94.599   7.87000000e+02 
94.563   6.85000000e+02 
94.527   6.06000000e+02 
94.491   6.58000000e+02 
94.455   5.70000000e+02 
94.420   5.13000000e+02 
94.384   5.07000000e+02 
94.348   4.44000000e+02 
94.312   4.43000000e+02 
94.276   3.68000000e+02 
94.240   3.78000000e+02 
94.204   3.31000000e+02 
94.168   3.06000000e+02 
94.132   2.87000000e+02 
94.096   2.73000000e+02 
94.060   2.54000000e+02 
94.024   2.35000000e+02 
93.988   2.14000000e+02 
93.952   2.26000000e+02 
93.916   1.97000000e+02 
93.880   2.13000000e+02 
93.845   2.18000000e+02 
93.809   1.75000000e+02 
93.773   1.79000000e+02 
93.737   1.86000000e+02 
93.701   1.96000000e+02 
93.665   1.89000000e+02 
93.629   1.95000000e+02 
93.593   1.68000000e+02 
93.557   1.81000000e+02 
93.521   1.81000000e+02 
93.485   1.98000000e+02 
93.449   1.71000000e+02 
93.413   1.68000000e+02 
93.377   1.54000000e+02 
93.341   1.40000000e+02 
93.305   1.59000000e+02 
93.270   1.70000000e+02 
93.234   1.48000000e+02 
93.198   1.73000000e+02 
93.162   1.74000000e+02 
93.126   2.02000000e+02 
93.090   1.61000000e+02 
93.054   1.76000000e+02 
93.018   1.41000000e+02 
92.982   1.81000000e+02 
92.946   1.62000000e+02 
92.910   1.81000000e+02 
92.874   1.86000000e+02 
92.838   1.84000000e+02 
92.802   1.89000000e+02 
92.766   1.77000000e+02 
92.730   1.74000000e+02 
92.695   1.72000000e+02 
92.659   2.03000000e+02 
92.623   2.00000000e+02 
92.587   2.19000000e+02 
92.551   2.20000000e+02 
92.515   2.27000000e+02 
92.479   2.33000000e+02 
92.443   2.22000000e+02 
92.407   2.09000000e+02 
92.371   2.15000000e+02 
92.335   2.66000000e+02 
92.299   2.87000000e+02 
92.263   2.53000000e+02 
92.227   3.22000000e+02 
92.191   3.23000000e+02 
92.155   3.03000000e+02 
92.120   3.18000000e+02 
92.084   3.57000000e+02 
92.048   3.91000000e+02 
92.012   3.84000000e+02 
91.976   3.98000000e+02 
91.940   4.50000000e+02 
91.904   5.26000000e+02 
91.868   4.86000000e+02 
91.832   5.14000000e+02 
91.796   5.28000000e+02 
91.760   5.43000000e+02 
91.724   6.57000000e+02 
91.688   6.41000000e+02 
91.652   7.12000000e+02 
91.616   7.33000000e+02 
91.580   7.65000000e+02 
91.545   8.23000000e+02 
91.509   8.06000000e+02 
91.473   9.10000000e+02 
91.437   9.21000000e+02 
91.401   9.55000000e+02 
91.365   1.03500000e+03 
91.329   1.05300000e+03 
91.293   1.01200000e+03 
91.257   1.06200000e+03 
91.221   1.13400000e+03 
91.185   1.14800000e+03 
91.149   1.12600000e+03 
91.113   1.08500000e+03 
91.077   1.07000000e+03 
91.041   1.09300000e+03 
91.005   1.00800000e+03 
90.970   9.52000000e+02 
90.934   8.76000000e+02 
90.898   8.45000000e+02 
90.862   7.89000000e+02 
90.826   7.31000000e+02 
90.790   7.01000000e+02 
90.754   6.26000000e+02 
90.718   5.33000000e+02 
90.682   5.08000000e+02 
90.646   4.65000000e+02 
90.610   4.17000000e+02 
90.574   3.46000000e+02 
90.538   3.10000000e+02 
90.502   3.04000000e+02 
90.466   2.58000000e+02 
90.430   2.61000000e+02 
90.395   2.15000000e+02 
90.359   2.15000000e+02 
90.323   1.63000000e+02 
90.287   1.87000000e+02 
90.251   1.95000000e+02 
90.215   1.60000000e+02 
90.179   1.53000000e+02 
90.143   1.54000000e+02 
90.107   1.52000000e+02 
90.071   1.36000000e+02 
90.035   1.27000000e+02 
89.999   1.11000000e+02 
89.963   1.12000000e+02 
89.927   1.08000000e+02 
89.891   1.12000000e+02 
89.855   1.33000000e+02 
89.820   1.16000000e+02 
89.784   9.40000000e+01 
89.748   9.40000000e+01 
89.712   1.14000000e+02 
89.676   9.10000000e+01 
89.640   1.03000000e+02 
89.604   1.00000000e+02 
89.568   8.00000000e+01 
89.532   9.80000000e+01 
89.496   7.20000000e+01 
89.460   9.20000000e+01 
89.424   1.12000000e+02 
89.388   9.10000000e+01 
89.352   1.00000000e+02 
89.316   9.00000000e+01 
89.280   7.30000000e+01 
89.245   8.60000000e+01 
89.209   1.08000000e+02 
89.173   7.10000000e+01 
89.137   8.50000000e+01 
89.101   8.80000000e+01 
89.065   7.30000000e+01 
89.029   6.90000000e+01 
88.993   6.80000000e+01 
88.957   7.10000000e+01 
88.921   9.30000000e+01 
88.885   8.30000000e+01 
88.849   8.10000000e+01 
88.813   7.10000000e+01 
88.777   8.10000000e+01 
88.741   8.30000000e+01 
88.705   7.90000000e+01 
88.670   7.00000000e+01 
88.634   5.90000000e+01 
88.598   7.30000000e+01 
88.562   6.90000000e+01 
88.526   7.20000000e+01 
88.490   6.40000000e+01 
88.454   7.10000000e+01 
88.418   8.10000000e+01 
88.382   6.80000000e+01 
88.346   6.70000000e+01 
88.310   7.30000000e+01 
88.274   8.10000000e+01 
88.238   7.20000000e+01 
88.202   7.20000000e+01 
88.166   6.20000000e+01 
88.130   7.50000000e+01 
88.095   7.00000000e+01 
88.059   7.70000000e+01 
88.023   6.90000000e+01 

