EXPERIMENT FILE
Version = 2

[ Experiment Parameters ]
Experiment Description= <none> 
Number_of_Regions_in_Experiment= 1 

Original_File_name= C:\alexesca\data\12182012_Au _4f_PowerSupplyWarmUp_3hr_400W_30deg_57N.xps 
Instrument= HP ESCA West
Date= 12-18-2012
Time=  15:59:07

[ Layer Parameters ]
Layer_Type= XPS

[ Region 1 Parameters ]
Region_Description = Au 4f Dithered Scan                
BEcenter(eV) = 93.000000
BEwidth(eV) = 10.000000
BEstep(eV) = 0.035937
Dwell_Time(sec) = 1.000000
N_o_scans = 1  
N_o_Channels = 278  
Scan_mode = 0  (DITHERED)

[ L= 1 R= 1 ]
BEcenter= 93.000  
BEwidth= -9.955  
Excitation= 1486.600
Time_p_channel= 256.000 
Size= 278
97.977   1.52000000e+02 
97.941   1.65000000e+02 
97.905   1.84000000e+02 
97.870   1.79000000e+02 
97.834   1.87000000e+02 
97.798   1.96000000e+02 
97.762   1.79000000e+02 
97.726   1.82000000e+02 
97.690   1.70000000e+02 
97.654   1.71000000e+02 
97.618   1.92000000e+02 
97.582   1.56000000e+02 
97.546   1.83000000e+02 
97.510   1.89000000e+02 
97.474   1.56000000e+02 
97.438   1.89000000e+02 
97.402   1.91000000e+02 
97.366   1.81000000e+02 
97.330   1.69000000e+02 
97.295   1.82000000e+02 
97.259   1.91000000e+02 
97.223   1.72000000e+02 
97.187   2.11000000e+02 
97.151   2.10000000e+02 
97.115   1.77000000e+02 
97.079   1.92000000e+02 
97.043   1.72000000e+02 
97.007   1.92000000e+02 
96.971   1.72000000e+02 
96.935   1.87000000e+02 
96.899   1.96000000e+02 
96.863   1.99000000e+02 
96.827   1.94000000e+02 
96.791   1.85000000e+02 
96.755   1.65000000e+02 
96.720   1.70000000e+02 
96.684   2.01000000e+02 
96.648   1.79000000e+02 
96.612   1.90000000e+02 
96.576   1.93000000e+02 
96.540   1.90000000e+02 
96.504   1.95000000e+02 
96.468   1.72000000e+02 
96.432   1.68000000e+02 
96.396   1.89000000e+02 
96.360   1.67000000e+02 
96.324   1.90000000e+02 
96.288   2.09000000e+02 
96.252   2.10000000e+02 
96.216   1.68000000e+02 
96.180   1.98000000e+02 
96.145   1.91000000e+02 
96.109   2.03000000e+02 
96.073   2.06000000e+02 
96.037   2.16000000e+02 
96.001   2.04000000e+02 
95.965   1.90000000e+02 
95.929   2.02000000e+02 
95.893   2.19000000e+02 
95.857   1.94000000e+02 
95.821   1.83000000e+02 
95.785   2.19000000e+02 
95.749   2.20000000e+02 
95.713   1.93000000e+02 
95.677   2.15000000e+02 
95.641   2.01000000e+02 
95.605   2.17000000e+02 
95.570   2.15000000e+02 
95.534   2.17000000e+02 
95.498   2.25000000e+02 
95.462   2.28000000e+02 
95.426   2.14000000e+02 
95.390   2.19000000e+02 
95.354   2.21000000e+02 
95.318   2.48000000e+02 
95.282   1.97000000e+02 
95.246   2.45000000e+02 
95.210   2.37000000e+02 
95.174   2.57000000e+02 
95.138   2.69000000e+02 
95.102   2.75000000e+02 
95.066   2.37000000e+02 
95.030   2.52000000e+02 
94.995   2.83000000e+02 
94.959   2.68000000e+02 
94.923   2.79000000e+02 
94.887   3.08000000e+02 
94.851   3.35000000e+02 
94.815   2.60000000e+02 
94.779   3.03000000e+02 
94.743   3.64000000e+02 
94.707   3.29000000e+02 
94.671   3.64000000e+02 
94.635   3.45000000e+02 
94.599   3.53000000e+02 
94.563   3.79000000e+02 
94.527   3.93000000e+02 
94.491   4.18000000e+02 
94.455   4.49000000e+02 
94.420   4.58000000e+02 
94.384   4.64000000e+02 
94.348   5.13000000e+02 
94.312   5.31000000e+02 
94.276   5.61000000e+02 
94.240   5.98000000e+02 
94.204   5.89000000e+02 
94.168   6.00000000e+02 
94.132   6.22000000e+02 
94.096   7.04000000e+02 
94.060   6.60000000e+02 
94.024   7.26000000e+02 
93.988   7.29000000e+02 
93.952   7.33000000e+02 
93.916   8.04000000e+02 
93.880   7.81000000e+02 
93.845   8.85000000e+02 
93.809   9.01000000e+02 
93.773   8.80000000e+02 
93.737   9.46000000e+02 
93.701   9.24000000e+02 
93.665   9.65000000e+02 
93.629   1.07000000e+03 
93.593   1.01800000e+03 
93.557   1.11700000e+03 
93.521   1.04200000e+03 
93.485   1.04600000e+03 
93.449   1.08200000e+03 
93.413   9.96000000e+02 
93.377   1.08000000e+03 
93.341   1.11600000e+03 
93.305   9.75000000e+02 
93.270   9.22000000e+02 
93.234   9.45000000e+02 
93.198   8.72000000e+02 
93.162   7.91000000e+02 
93.126   8.28000000e+02 
93.090   6.89000000e+02 
93.054   7.15000000e+02 
93.018   5.93000000e+02 
92.982   5.02000000e+02 
92.946   5.03000000e+02 
92.910   5.01000000e+02 
92.874   4.31000000e+02 
92.838   4.32000000e+02 
92.802   3.58000000e+02 
92.766   3.34000000e+02 
92.730   3.14000000e+02 
92.695   3.08000000e+02 
92.659   2.81000000e+02 
92.623   2.70000000e+02 
92.587   2.74000000e+02 
92.551   2.95000000e+02 
92.515   2.23000000e+02 
92.479   2.52000000e+02 
92.443   2.33000000e+02 
92.407   2.50000000e+02 
92.371   2.54000000e+02 
92.335   2.08000000e+02 
92.299   2.09000000e+02 
92.263   2.13000000e+02 
92.227   2.15000000e+02 
92.191   2.10000000e+02 
92.155   2.14000000e+02 
92.120   1.99000000e+02 
92.084   2.04000000e+02 
92.048   2.16000000e+02 
92.012   2.14000000e+02 
91.976   2.18000000e+02 
91.940   2.10000000e+02 
91.904   2.03000000e+02 
91.868   2.13000000e+02 
91.832   1.80000000e+02 
91.796   2.12000000e+02 
91.760   2.04000000e+02 
91.724   2.02000000e+02 
91.688   1.87000000e+02 
91.652   2.24000000e+02 
91.616   2.27000000e+02 
91.580   2.33000000e+02 
91.545   2.24000000e+02 
91.509   2.20000000e+02 
91.473   2.50000000e+02 
91.437   2.84000000e+02 
91.401   2.35000000e+02 
91.365   2.51000000e+02 
91.329   2.83000000e+02 
91.293   3.12000000e+02 
91.257   2.82000000e+02 
91.221   2.97000000e+02 
91.185   2.88000000e+02 
91.149   3.09000000e+02 
91.113   3.17000000e+02 
91.077   3.21000000e+02 
91.041   3.36000000e+02 
91.005   3.96000000e+02 
90.970   3.60000000e+02 
90.934   4.21000000e+02 
90.898   4.03000000e+02 
90.862   4.32000000e+02 
90.826   4.34000000e+02 
90.790   4.86000000e+02 
90.754   4.66000000e+02 
90.718   5.20000000e+02 
90.682   5.49000000e+02 
90.646   5.81000000e+02 
90.610   5.97000000e+02 
90.574   5.84000000e+02 
90.538   6.93000000e+02 
90.502   6.72000000e+02 
90.466   7.26000000e+02 
90.430   7.61000000e+02 
90.395   8.44000000e+02 
90.359   8.86000000e+02 
90.323   8.48000000e+02 
90.287   8.91000000e+02 
90.251   9.67000000e+02 
90.215   9.70000000e+02 
90.179   1.02100000e+03 
90.143   1.07900000e+03 
90.107   1.10100000e+03 
90.071   1.17600000e+03 
90.035   1.16200000e+03 
89.999   1.22600000e+03 
89.963   1.32400000e+03 
89.927   1.24400000e+03 
89.891   1.31200000e+03 
89.855   1.27900000e+03 
89.820   1.30800000e+03 
89.784   1.32700000e+03 
89.748   1.24600000e+03 
89.712   1.37000000e+03 
89.676   1.21900000e+03 
89.640   1.18600000e+03 
89.604   1.16900000e+03 
89.568   1.08500000e+03 
89.532   9.73000000e+02 
89.496   9.48000000e+02 
89.460   8.75000000e+02 
89.424   7.77000000e+02 
89.388   7.55000000e+02 
89.352   6.45000000e+02 
89.316   5.55000000e+02 
89.280   5.05000000e+02 
89.245   4.67000000e+02 
89.209   3.98000000e+02 
89.173   3.38000000e+02 
89.137   3.27000000e+02 
89.101   3.25000000e+02 
89.065   2.92000000e+02 
89.029   2.71000000e+02 
88.993   2.49000000e+02 
88.957   2.32000000e+02 
88.921   1.90000000e+02 
88.885   1.94000000e+02 
88.849   1.98000000e+02 
88.813   1.65000000e+02 
88.777   1.78000000e+02 
88.741   1.55000000e+02 
88.705   1.44000000e+02 
88.670   1.59000000e+02 
88.634   1.42000000e+02 
88.598   1.54000000e+02 
88.562   1.41000000e+02 
88.526   1.34000000e+02 
88.490   1.15000000e+02 
88.454   1.05000000e+02 
88.418   1.16000000e+02 
88.382   9.90000000e+01 
88.346   9.60000000e+01 
88.310   1.23000000e+02 
88.274   9.70000000e+01 
88.238   9.10000000e+01 
88.202   1.01000000e+02 
88.166   1.07000000e+02 
88.130   1.02000000e+02 
88.095   1.10000000e+02 
88.059   9.10000000e+01 
88.023   9.50000000e+01 

