EXPERIMENT FILE
Version = 2

[ Experiment Parameters ]
Experiment Description= <none> 
Number_of_Regions_in_Experiment= 1 

Original_File_name= C:\alexesca\data\12182012_Au _4f_PowerSupplyWarmUp_2hr_400W_30deg_57N.xps 
Instrument= HP ESCA West
Date= 12-18-2012
Time=  14:53:22

[ Layer Parameters ]
Layer_Type= XPS

[ Region 1 Parameters ]
Region_Description = Au 4f Dithered Scan                
BEcenter(eV) = 93.000000
BEwidth(eV) = 10.000000
BEstep(eV) = 0.035937
Dwell_Time(sec) = 1.000000
N_o_scans = 1  
N_o_Channels = 278  
Scan_mode = 0  (DITHERED)

[ L= 1 R= 1 ]
BEcenter= 93.000  
BEwidth= -9.955  
Excitation= 1486.600
Time_p_channel= 256.000 
Size= 278
97.977   1.52000000e+02 
97.941   1.85000000e+02 
97.905   1.77000000e+02 
97.870   1.67000000e+02 
97.834   1.86000000e+02 
97.798   1.74000000e+02 
97.762   1.69000000e+02 
97.726   1.55000000e+02 
97.690   1.55000000e+02 
97.654   1.87000000e+02 
97.618   1.64000000e+02 
97.582   1.55000000e+02 
97.546   1.77000000e+02 
97.510   1.68000000e+02 
97.474   1.83000000e+02 
97.438   1.97000000e+02 
97.402   1.76000000e+02 
97.366   1.87000000e+02 
97.330   1.77000000e+02 
97.295   1.58000000e+02 
97.259   1.76000000e+02 
97.223   1.88000000e+02 
97.187   1.79000000e+02 
97.151   1.75000000e+02 
97.115   1.66000000e+02 
97.079   1.77000000e+02 
97.043   1.89000000e+02 
97.007   1.91000000e+02 
96.971   1.58000000e+02 
96.935   1.72000000e+02 
96.899   2.02000000e+02 
96.863   1.97000000e+02 
96.827   1.64000000e+02 
96.791   1.81000000e+02 
96.755   1.79000000e+02 
96.720   1.90000000e+02 
96.684   1.94000000e+02 
96.648   1.87000000e+02 
96.612   1.73000000e+02 
96.576   1.99000000e+02 
96.540   1.60000000e+02 
96.504   1.81000000e+02 
96.468   1.77000000e+02 
96.432   1.92000000e+02 
96.396   1.85000000e+02 
96.360   2.02000000e+02 
96.324   2.22000000e+02 
96.288   2.05000000e+02 
96.252   2.02000000e+02 
96.216   2.00000000e+02 
96.180   1.82000000e+02 
96.145   2.00000000e+02 
96.109   2.07000000e+02 
96.073   2.03000000e+02 
96.037   1.95000000e+02 
96.001   1.86000000e+02 
95.965   1.97000000e+02 
95.929   1.77000000e+02 
95.893   1.85000000e+02 
95.857   1.93000000e+02 
95.821   1.87000000e+02 
95.785   2.05000000e+02 
95.749   1.94000000e+02 
95.713   1.97000000e+02 
95.677   1.99000000e+02 
95.641   2.25000000e+02 
95.605   2.05000000e+02 
95.570   1.90000000e+02 
95.534   2.28000000e+02 
95.498   2.29000000e+02 
95.462   2.39000000e+02 
95.426   2.15000000e+02 
95.390   2.32000000e+02 
95.354   1.95000000e+02 
95.318   2.25000000e+02 
95.282   2.34000000e+02 
95.246   2.12000000e+02 
95.210   2.55000000e+02 
95.174   2.28000000e+02 
95.138   2.55000000e+02 
95.102   2.46000000e+02 
95.066   2.71000000e+02 
95.030   2.70000000e+02 
94.995   2.91000000e+02 
94.959   2.66000000e+02 
94.923   3.07000000e+02 
94.887   2.87000000e+02 
94.851   3.02000000e+02 
94.815   2.86000000e+02 
94.779   3.60000000e+02 
94.743   3.12000000e+02 
94.707   3.40000000e+02 
94.671   3.47000000e+02 
94.635   3.78000000e+02 
94.599   3.88000000e+02 
94.563   4.03000000e+02 
94.527   3.65000000e+02 
94.491   4.03000000e+02 
94.455   4.15000000e+02 
94.420   4.75000000e+02 
94.384   5.03000000e+02 
94.348   5.33000000e+02 
94.312   5.23000000e+02 
94.276   5.32000000e+02 
94.240   5.54000000e+02 
94.204   5.74000000e+02 
94.168   6.96000000e+02 
94.132   6.58000000e+02 
94.096   6.94000000e+02 
94.060   6.73000000e+02 
94.024   7.44000000e+02 
93.988   7.64000000e+02 
93.952   7.63000000e+02 
93.916   8.22000000e+02 
93.880   8.87000000e+02 
93.845   8.30000000e+02 
93.809   9.60000000e+02 
93.773   9.77000000e+02 
93.737   9.57000000e+02 
93.701   9.57000000e+02 
93.665   1.01300000e+03 
93.629   1.01500000e+03 
93.593   1.02800000e+03 
93.557   1.01300000e+03 
93.521   1.07400000e+03 
93.485   1.08200000e+03 
93.449   9.68000000e+02 
93.413   1.02300000e+03 
93.377   9.87000000e+02 
93.341   1.00200000e+03 
93.305   8.82000000e+02 
93.270   8.67000000e+02 
93.234   8.49000000e+02 
93.198   8.23000000e+02 
93.162   6.98000000e+02 
93.126   6.67000000e+02 
93.090   6.17000000e+02 
93.054   6.00000000e+02 
93.018   5.31000000e+02 
92.982   4.63000000e+02 
92.946   4.25000000e+02 
92.910   4.28000000e+02 
92.874   3.88000000e+02 
92.838   3.54000000e+02 
92.802   3.56000000e+02 
92.766   2.83000000e+02 
92.730   2.99000000e+02 
92.695   2.50000000e+02 
92.659   2.56000000e+02 
92.623   2.67000000e+02 
92.587   2.56000000e+02 
92.551   2.75000000e+02 
92.515   2.41000000e+02 
92.479   2.40000000e+02 
92.443   2.10000000e+02 
92.407   1.91000000e+02 
92.371   2.28000000e+02 
92.335   2.39000000e+02 
92.299   1.89000000e+02 
92.263   2.21000000e+02 
92.227   1.91000000e+02 
92.191   2.21000000e+02 
92.155   1.98000000e+02 
92.120   1.93000000e+02 
92.084   2.22000000e+02 
92.048   1.73000000e+02 
92.012   1.95000000e+02 
91.976   1.97000000e+02 
91.940   2.00000000e+02 
91.904   2.06000000e+02 
91.868   1.97000000e+02 
91.832   1.81000000e+02 
91.796   1.96000000e+02 
91.760   2.03000000e+02 
91.724   1.93000000e+02 
91.688   2.04000000e+02 
91.652   1.95000000e+02 
91.616   2.28000000e+02 
91.580   2.37000000e+02 
91.545   2.31000000e+02 
91.509   2.36000000e+02 
91.473   2.29000000e+02 
91.437   2.59000000e+02 
91.401   2.58000000e+02 
91.365   2.79000000e+02 
91.329   2.50000000e+02 
91.293   2.75000000e+02 
91.257   2.75000000e+02 
91.221   2.69000000e+02 
91.185   3.18000000e+02 
91.149   3.27000000e+02 
91.113   3.10000000e+02 
91.077   3.20000000e+02 
91.041   3.16000000e+02 
91.005   3.47000000e+02 
90.970   3.88000000e+02 
90.934   3.94000000e+02 
90.898   4.11000000e+02 
90.862   4.37000000e+02 
90.826   4.78000000e+02 
90.790   4.48000000e+02 
90.754   5.16000000e+02 
90.718   5.23000000e+02 
90.682   5.30000000e+02 
90.646   5.72000000e+02 
90.610   6.23000000e+02 
90.574   6.55000000e+02 
90.538   6.84000000e+02 
90.502   7.39000000e+02 
90.466   7.32000000e+02 
90.430   7.70000000e+02 
90.395   8.26000000e+02 
90.359   8.57000000e+02 
90.323   8.53000000e+02 
90.287   9.50000000e+02 
90.251   9.50000000e+02 
90.215   1.00200000e+03 
90.179   1.07100000e+03 
90.143   1.04600000e+03 
90.107   1.11100000e+03 
90.071   1.16400000e+03 
90.035   1.16100000e+03 
89.999   1.23000000e+03 
89.963   1.24200000e+03 
89.927   1.21900000e+03 
89.891   1.30300000e+03 
89.855   1.26400000e+03 
89.820   1.32600000e+03 
89.784   1.27000000e+03 
89.748   1.17300000e+03 
89.712   1.19600000e+03 
89.676   1.16400000e+03 
89.640   1.14600000e+03 
89.604   1.04200000e+03 
89.568   9.68000000e+02 
89.532   9.03000000e+02 
89.496   8.39000000e+02 
89.460   7.44000000e+02 
89.424   7.78000000e+02 
89.388   6.51000000e+02 
89.352   6.37000000e+02 
89.316   5.14000000e+02 
89.280   4.38000000e+02 
89.245   4.24000000e+02 
89.209   3.66000000e+02 
89.173   3.77000000e+02 
89.137   3.25000000e+02 
89.101   2.78000000e+02 
89.065   2.81000000e+02 
89.029   2.35000000e+02 
88.993   2.24000000e+02 
88.957   2.03000000e+02 
88.921   1.90000000e+02 
88.885   2.02000000e+02 
88.849   1.70000000e+02 
88.813   1.59000000e+02 
88.777   1.44000000e+02 
88.741   1.59000000e+02 
88.705   1.29000000e+02 
88.670   1.45000000e+02 
88.634   1.20000000e+02 
88.598   9.80000000e+01 
88.562   1.24000000e+02 
88.526   1.41000000e+02 
88.490   1.12000000e+02 
88.454   1.40000000e+02 
88.418   1.19000000e+02 
88.382   1.05000000e+02 
88.346   9.40000000e+01 
88.310   9.40000000e+01 
88.274   9.80000000e+01 
88.238   9.80000000e+01 
88.202   1.19000000e+02 
88.166   1.08000000e+02 
88.130   7.60000000e+01 
88.095   9.10000000e+01 
88.059   8.10000000e+01 
88.023   8.30000000e+01 

