EXPERIMENT FILE
Version = 2

[ Experiment Parameters ]
Experiment Description= <none> 
Number_of_Regions_in_Experiment= 1 

Original_File_name= C:\alexesca\data\129ThetaNeg30.xps 
Instrument= HP ESCA West
Date= 01-29-2013
Time=  12:11:03

[ Layer Parameters ]
Layer_Type= XPS

[ Region 1 Parameters ]
Region_Description = Au 4f Dithered 94eV Center 9.2eV Width
BEcenter(eV) = 94.000000
BEwidth(eV) = 9.200000
BEstep(eV) = 0.035937
Dwell_Time(sec) = 1.000000
N_o_scans = 1  
N_o_Channels = 256  
Scan_mode = 0  (DITHERED)

[ L= 1 R= 1 ]
BEcenter= 94.000  
BEwidth= -9.164  
Excitation= 1486.600
Time_p_channel= 256.000 
Size= 256
98.582   2.11000000e+02 
98.546   1.99000000e+02 
98.510   2.14000000e+02 
98.474   1.97000000e+02 
98.438   1.99000000e+02 
98.402   2.13000000e+02 
98.366   2.08000000e+02 
98.330   2.20000000e+02 
98.295   2.32000000e+02 
98.259   1.98000000e+02 
98.223   2.11000000e+02 
98.187   2.25000000e+02 
98.151   2.08000000e+02 
98.115   2.10000000e+02 
98.079   2.15000000e+02 
98.043   2.05000000e+02 
98.007   2.37000000e+02 
97.971   1.94000000e+02 
97.935   2.20000000e+02 
97.899   2.10000000e+02 
97.863   1.92000000e+02 
97.827   2.23000000e+02 
97.791   2.12000000e+02 
97.755   2.09000000e+02 
97.720   2.28000000e+02 
97.684   1.74000000e+02 
97.648   2.32000000e+02 
97.612   2.33000000e+02 
97.576   2.37000000e+02 
97.540   2.28000000e+02 
97.504   2.19000000e+02 
97.468   2.22000000e+02 
97.432   2.53000000e+02 
97.396   2.22000000e+02 
97.360   2.55000000e+02 
97.324   2.34000000e+02 
97.288   2.11000000e+02 
97.252   2.24000000e+02 
97.216   2.55000000e+02 
97.180   2.67000000e+02 
97.145   2.45000000e+02 
97.109   2.45000000e+02 
97.073   2.48000000e+02 
97.037   2.53000000e+02 
97.001   2.40000000e+02 
96.965   2.63000000e+02 
96.929   2.60000000e+02 
96.893   2.58000000e+02 
96.857   2.63000000e+02 
96.821   3.23000000e+02 
96.785   2.95000000e+02 
96.749   3.06000000e+02 
96.713   3.30000000e+02 
96.677   3.47000000e+02 
96.641   3.19000000e+02 
96.605   3.45000000e+02 
96.570   3.57000000e+02 
96.534   3.97000000e+02 
96.498   4.30000000e+02 
96.462   4.49000000e+02 
96.426   4.22000000e+02 
96.390   4.41000000e+02 
96.354   5.21000000e+02 
96.318   5.24000000e+02 
96.282   5.43000000e+02 
96.246   5.40000000e+02 
96.210   6.02000000e+02 
96.174   6.28000000e+02 
96.138   6.59000000e+02 
96.102   7.13000000e+02 
96.066   7.52000000e+02 
96.030   8.15000000e+02 
95.995   8.06000000e+02 
95.959   8.61000000e+02 
95.923   8.73000000e+02 
95.887   9.57000000e+02 
95.851   9.68000000e+02 
95.815   9.47000000e+02 
95.779   9.89000000e+02 
95.743   1.11600000e+03 
95.707   1.05100000e+03 
95.671   1.06400000e+03 
95.635   1.09300000e+03 
95.599   1.03800000e+03 
95.563   1.04900000e+03 
95.527   1.03600000e+03 
95.491   9.83000000e+02 
95.455   9.51000000e+02 
95.420   9.60000000e+02 
95.384   9.26000000e+02 
95.348   8.22000000e+02 
95.312   8.31000000e+02 
95.276   7.72000000e+02 
95.240   7.17000000e+02 
95.204   6.41000000e+02 
95.168   6.51000000e+02 
95.132   5.74000000e+02 
95.096   5.69000000e+02 
95.060   5.05000000e+02 
95.024   4.16000000e+02 
94.988   4.71000000e+02 
94.952   4.43000000e+02 
94.916   3.86000000e+02 
94.880   3.69000000e+02 
94.845   3.30000000e+02 
94.809   3.13000000e+02 
94.773   2.83000000e+02 
94.737   2.89000000e+02 
94.701   2.93000000e+02 
94.665   2.63000000e+02 
94.629   3.08000000e+02 
94.593   2.44000000e+02 
94.557   2.40000000e+02 
94.521   2.20000000e+02 
94.485   2.34000000e+02 
94.449   2.27000000e+02 
94.413   2.25000000e+02 
94.377   2.40000000e+02 
94.341   2.22000000e+02 
94.305   2.16000000e+02 
94.270   2.29000000e+02 
94.234   2.15000000e+02 
94.198   2.22000000e+02 
94.162   2.16000000e+02 
94.126   2.17000000e+02 
94.090   2.04000000e+02 
94.054   2.01000000e+02 
94.018   1.98000000e+02 
93.982   2.21000000e+02 
93.946   1.98000000e+02 
93.910   2.08000000e+02 
93.874   1.89000000e+02 
93.838   1.95000000e+02 
93.802   1.99000000e+02 
93.766   2.07000000e+02 
93.730   2.37000000e+02 
93.695   2.16000000e+02 
93.659   1.98000000e+02 
93.623   2.14000000e+02 
93.587   2.33000000e+02 
93.551   2.24000000e+02 
93.515   2.05000000e+02 
93.479   2.29000000e+02 
93.443   1.91000000e+02 
93.407   2.03000000e+02 
93.371   2.26000000e+02 
93.335   2.13000000e+02 
93.299   2.41000000e+02 
93.263   2.12000000e+02 
93.227   2.80000000e+02 
93.191   2.42000000e+02 
93.155   2.81000000e+02 
93.120   3.18000000e+02 
93.084   3.19000000e+02 
93.048   2.83000000e+02 
93.012   3.12000000e+02 
92.976   3.21000000e+02 
92.940   3.57000000e+02 
92.904   3.88000000e+02 
92.868   3.73000000e+02 
92.832   4.50000000e+02 
92.796   3.98000000e+02 
92.760   4.60000000e+02 
92.724   4.52000000e+02 
92.688   5.47000000e+02 
92.652   5.37000000e+02 
92.616   5.68000000e+02 
92.580   6.21000000e+02 
92.545   6.73000000e+02 
92.509   6.65000000e+02 
92.473   7.00000000e+02 
92.437   7.75000000e+02 
92.401   8.67000000e+02 
92.365   8.29000000e+02 
92.329   9.57000000e+02 
92.293   9.89000000e+02 
92.257   1.05900000e+03 
92.221   1.12300000e+03 
92.185   1.12700000e+03 
92.149   1.23100000e+03 
92.113   1.17300000e+03 
92.077   1.26200000e+03 
92.041   1.30600000e+03 
92.005   1.31400000e+03 
91.970   1.28000000e+03 
91.934   1.31600000e+03 
91.898   1.35400000e+03 
91.862   1.25800000e+03 
91.826   1.20000000e+03 
91.790   1.16300000e+03 
91.754   1.15900000e+03 
91.718   1.08600000e+03 
91.682   1.05500000e+03 
91.646   1.02100000e+03 
91.610   9.64000000e+02 
91.574   8.77000000e+02 
91.538   8.14000000e+02 
91.502   7.02000000e+02 
91.466   6.80000000e+02 
91.430   6.51000000e+02 
91.395   5.92000000e+02 
91.359   5.15000000e+02 
91.323   4.73000000e+02 
91.287   4.49000000e+02 
91.251   3.95000000e+02 
91.215   3.76000000e+02 
91.179   3.39000000e+02 
91.143   3.09000000e+02 
91.107   2.75000000e+02 
91.071   2.68000000e+02 
91.035   2.61000000e+02 
90.999   2.33000000e+02 
90.963   2.00000000e+02 
90.927   2.01000000e+02 
90.891   1.74000000e+02 
90.855   1.79000000e+02 
90.820   2.00000000e+02 
90.784   1.61000000e+02 
90.748   1.62000000e+02 
90.712   1.79000000e+02 
90.676   1.36000000e+02 
90.640   1.72000000e+02 
90.604   1.41000000e+02 
90.568   1.50000000e+02 
90.532   1.31000000e+02 
90.496   1.41000000e+02 
90.460   1.39000000e+02 
90.424   1.36000000e+02 
90.388   1.36000000e+02 
90.352   1.22000000e+02 
90.316   1.48000000e+02 
90.280   1.30000000e+02 
90.245   1.05000000e+02 
90.209   1.28000000e+02 
90.173   1.02000000e+02 
90.137   1.08000000e+02 
90.101   1.14000000e+02 
90.065   1.01000000e+02 
90.029   1.12000000e+02 
89.993   1.25000000e+02 
89.957   1.07000000e+02 
89.921   1.12000000e+02 
89.885   1.37000000e+02 
89.849   9.40000000e+01 
89.813   9.40000000e+01 
89.777   1.02000000e+02 
89.741   1.13000000e+02 
89.705   1.10000000e+02 
89.670   1.03000000e+02 
89.634   1.20000000e+02 
89.598   9.40000000e+01 
89.562   1.10000000e+02 
89.526   1.17000000e+02 
89.490   1.17000000e+02 
89.454   7.20000000e+01 
89.418   1.00000000e+02 

