EXPERIMENT FILE
Version = 2

[ Experiment Parameters ]
Experiment Description= <none> 
Number_of_Regions_in_Experiment= 1 

Original_File_name= C:\alexesca\data\14_9_09.xps 
Instrument= HP ESCA West
Date= 09-09-2014
Time=  17:19:54

[ Layer Parameters ]
Layer_Type= XPS

[ Region 1 Parameters ]
Region_Description = quick sweep Au4f                   
BEcenter(eV) = 92.000000
BEwidth(eV) = 10.000000
BEstep(eV) = 0.035938
Dwell_Time(sec) = 1.000000
N_o_scans = 1  
N_o_Channels = 278  
Scan_mode = 0  (DITHERED)

[ L= 1 R= 1 ]
BEcenter= 92.000  
BEwidth= -9.955  
Excitation= 1486.600
Time_p_channel= 256.000 
Size= 278
96.977   2.11100000e+03 
96.941   2.15400000e+03 
96.905   2.00800000e+03 
96.870   2.07900000e+03 
96.834   2.05600000e+03 
96.798   2.01100000e+03 
96.762   2.02300000e+03 
96.726   2.10400000e+03 
96.690   2.07500000e+03 
96.654   2.04200000e+03 
96.618   1.97500000e+03 
96.582   2.08900000e+03 
96.546   1.99400000e+03 
96.510   2.02900000e+03 
96.474   2.02000000e+03 
96.438   2.08600000e+03 
96.402   2.05700000e+03 
96.366   2.07600000e+03 
96.330   2.06600000e+03 
96.295   2.11100000e+03 
96.259   2.20700000e+03 
96.223   1.97600000e+03 
96.187   2.01000000e+03 
96.151   1.94900000e+03 
96.115   2.07500000e+03 
96.079   2.06700000e+03 
96.043   2.08900000e+03 
96.007   2.07000000e+03 
95.971   2.10400000e+03 
95.935   2.02800000e+03 
95.899   2.10700000e+03 
95.863   2.08400000e+03 
95.827   1.98700000e+03 
95.791   2.03100000e+03 
95.755   1.99300000e+03 
95.720   2.07900000e+03 
95.684   2.03300000e+03 
95.648   2.09900000e+03 
95.612   2.02900000e+03 
95.576   2.04600000e+03 
95.540   2.02900000e+03 
95.504   2.03800000e+03 
95.468   2.03100000e+03 
95.432   2.03900000e+03 
95.396   2.03900000e+03 
95.360   2.05200000e+03 
95.324   2.01100000e+03 
95.288   2.05600000e+03 
95.252   2.03300000e+03 
95.216   2.10000000e+03 
95.180   2.06700000e+03 
95.145   2.01600000e+03 
95.109   2.04400000e+03 
95.073   2.12300000e+03 
95.037   2.11000000e+03 
95.001   2.10400000e+03 
94.965   2.00100000e+03 
94.929   2.07300000e+03 
94.893   2.12400000e+03 
94.857   2.05000000e+03 
94.821   2.04900000e+03 
94.785   2.00500000e+03 
94.749   2.07500000e+03 
94.713   2.09000000e+03 
94.677   2.06300000e+03 
94.641   2.06600000e+03 
94.605   1.97700000e+03 
94.570   2.02000000e+03 
94.534   2.04400000e+03 
94.498   2.11300000e+03 
94.462   2.09600000e+03 
94.426   2.02500000e+03 
94.390   2.02500000e+03 
94.354   2.06800000e+03 
94.318   2.03400000e+03 
94.282   2.02200000e+03 
94.246   2.11400000e+03 
94.210   2.11900000e+03 
94.174   2.02200000e+03 
94.138   2.08400000e+03 
94.102   2.04900000e+03 
94.066   2.05100000e+03 
94.030   2.09300000e+03 
93.995   2.01300000e+03 
93.959   2.17500000e+03 
93.923   2.07100000e+03 
93.887   2.12500000e+03 
93.851   2.07800000e+03 
93.815   2.05000000e+03 
93.779   2.00900000e+03 
93.743   2.02600000e+03 
93.707   2.07100000e+03 
93.671   2.08200000e+03 
93.635   2.09700000e+03 
93.599   2.03400000e+03 
93.563   2.01300000e+03 
93.527   2.08900000e+03 
93.491   2.01700000e+03 
93.455   1.99900000e+03 
93.420   2.03800000e+03 
93.384   2.00600000e+03 
93.348   2.13300000e+03 
93.312   1.99700000e+03 
93.276   2.04500000e+03 
93.240   1.93300000e+03 
93.204   2.08300000e+03 
93.168   2.13800000e+03 
93.132   2.10700000e+03 
93.096   2.06000000e+03 
93.060   2.05900000e+03 
93.024   2.09500000e+03 
92.988   1.99100000e+03 
92.952   1.98700000e+03 
92.916   2.06100000e+03 
92.880   2.07500000e+03 
92.845   1.97200000e+03 
92.809   2.01900000e+03 
92.773   2.01500000e+03 
92.737   2.03900000e+03 
92.701   2.03000000e+03 
92.665   2.06400000e+03 
92.629   2.05700000e+03 
92.593   2.05300000e+03 
92.557   2.10200000e+03 
92.521   2.04600000e+03 
92.485   2.01000000e+03 
92.449   2.06400000e+03 
92.413   2.13200000e+03 
92.377   2.02100000e+03 
92.341   2.04500000e+03 
92.305   2.03900000e+03 
92.270   2.04100000e+03 
92.234   2.05600000e+03 
92.198   2.10300000e+03 
92.162   2.04200000e+03 
92.126   1.98800000e+03 
92.090   2.06100000e+03 
92.054   2.06700000e+03 
92.018   2.08900000e+03 
91.982   2.07900000e+03 
91.946   2.04800000e+03 
91.910   2.03000000e+03 
91.874   2.08700000e+03 
91.838   2.13500000e+03 
91.802   1.99700000e+03 
91.766   2.06400000e+03 
91.730   2.06100000e+03 
91.695   2.10700000e+03 
91.659   1.99200000e+03 
91.623   2.11400000e+03 
91.587   2.06000000e+03 
91.551   2.10100000e+03 
91.515   1.98200000e+03 
91.479   2.02200000e+03 
91.443   2.05400000e+03 
91.407   2.05400000e+03 
91.371   2.09400000e+03 
91.335   1.99400000e+03 
91.299   2.09700000e+03 
91.263   2.15100000e+03 
91.227   2.06600000e+03 
91.191   2.04300000e+03 
91.155   2.04500000e+03 
91.120   1.99900000e+03 
91.084   2.05400000e+03 
91.048   2.08400000e+03 
91.012   1.97300000e+03 
90.976   2.05500000e+03 
90.940   2.00800000e+03 
90.904   2.07500000e+03 
90.868   2.13200000e+03 
90.832   2.03900000e+03 
90.796   1.98500000e+03 
90.760   2.05600000e+03 
90.724   2.00100000e+03 
90.688   1.98100000e+03 
90.652   2.07200000e+03 
90.616   2.01100000e+03 
90.580   2.16500000e+03 
90.545   2.04200000e+03 
90.509   2.06800000e+03 
90.473   2.06600000e+03 
90.437   2.03500000e+03 
90.401   2.05000000e+03 
90.365   2.15200000e+03 
90.329   2.02800000e+03 
90.293   2.15200000e+03 
90.257   2.06700000e+03 
90.221   2.15000000e+03 
90.185   2.02600000e+03 
90.149   2.07600000e+03 
90.113   2.12000000e+03 
90.077   2.14000000e+03 
90.041   2.13100000e+03 
90.005   2.03800000e+03 
89.970   2.04000000e+03 
89.934   2.02900000e+03 
89.898   2.09000000e+03 
89.862   1.99300000e+03 
89.826   2.11200000e+03 
89.790   2.14400000e+03 
89.754   2.10200000e+03 
89.718   2.08800000e+03 
89.682   2.13500000e+03 
89.646   2.09500000e+03 
89.610   2.12600000e+03 
89.574   2.03500000e+03 
89.538   2.02800000e+03 
89.502   2.13700000e+03 
89.466   2.02200000e+03 
89.430   2.03500000e+03 
89.395   2.04600000e+03 
89.359   2.05700000e+03 
89.323   2.04200000e+03 
89.287   2.14600000e+03 
89.251   2.02800000e+03 
89.215   2.08000000e+03 
89.179   2.03000000e+03 
89.143   2.04600000e+03 
89.107   2.01400000e+03 
89.071   2.09200000e+03 
89.035   2.10300000e+03 
88.999   2.00100000e+03 
88.963   2.07800000e+03 
88.927   2.08400000e+03 
88.891   2.09300000e+03 
88.855   1.98000000e+03 
88.820   2.02800000e+03 
88.784   2.08600000e+03 
88.748   2.21900000e+03 
88.712   2.13400000e+03 
88.676   2.09000000e+03 
88.640   2.03000000e+03 
88.604   2.08800000e+03 
88.568   2.04400000e+03 
88.532   2.02500000e+03 
88.496   2.01900000e+03 
88.460   2.00400000e+03 
88.424   2.04200000e+03 
88.388   2.02500000e+03 
88.352   2.07500000e+03 
88.316   2.12500000e+03 
88.280   2.06500000e+03 
88.245   2.14800000e+03 
88.209   2.08100000e+03 
88.173   2.01800000e+03 
88.137   2.12700000e+03 
88.101   2.10900000e+03 
88.065   2.02900000e+03 
88.029   2.08500000e+03 
87.993   2.04200000e+03 
87.957   2.12800000e+03 
87.921   2.08800000e+03 
87.885   2.07200000e+03 
87.849   2.07800000e+03 
87.813   2.01100000e+03 
87.777   2.06200000e+03 
87.741   2.07500000e+03 
87.705   2.05700000e+03 
87.670   2.08500000e+03 
87.634   2.03700000e+03 
87.598   2.04800000e+03 
87.562   2.08500000e+03 
87.526   2.09100000e+03 
87.490   2.05500000e+03 
87.454   2.01800000e+03 
87.418   2.04500000e+03 
87.382   2.09000000e+03 
87.346   2.14300000e+03 
87.310   2.01000000e+03 
87.274   2.02500000e+03 
87.238   2.06400000e+03 
87.202   2.07900000e+03 
87.166   2.10600000e+03 
87.130   2.05200000e+03 
87.095   2.07900000e+03 
87.059   2.03700000e+03 
87.023   2.05700000e+03 

