EXPERIMENT FILE
Version = 2

[ Experiment Parameters ]
Experiment Description= <none> 
Number_of_Regions_in_Experiment= 1 

Original_File_name= C:\alexesca\data\quicksweep Au4f.xps 
Instrument= HP ESCA West
Date= 04-23-2013
Time=  18:08:44

[ Layer Parameters ]
Layer_Type= XPS

[ Region 1 Parameters ]
Region_Description = quick sweep Au4f                   
BEcenter(eV) = 92.000000
BEwidth(eV) = 10.000000
BEstep(eV) = 0.035937
Dwell_Time(sec) = 1.000000
N_o_scans = 1  
N_o_Channels = 278  
Scan_mode = 0  (DITHERED)

[ L= 1 R= 1 ]
BEcenter= 92.000  
BEwidth= -9.955  
Excitation= 1486.600
Time_p_channel= 256.000 
Size= 278
96.977   7.56000000e+02 
96.941   6.90000000e+02 
96.905   7.31000000e+02 
96.870   8.21000000e+02 
96.834   7.46000000e+02 
96.798   7.75000000e+02 
96.762   7.62000000e+02 
96.726   7.64000000e+02 
96.690   7.92000000e+02 
96.654   8.20000000e+02 
96.618   7.79000000e+02 
96.582   8.08000000e+02 
96.546   8.50000000e+02 
96.510   8.31000000e+02 
96.474   8.96000000e+02 
96.438   8.99000000e+02 
96.402   8.86000000e+02 
96.366   8.79000000e+02 
96.330   9.43000000e+02 
96.295   9.56000000e+02 
96.259   9.77000000e+02 
96.223   9.95000000e+02 
96.187   1.03000000e+03 
96.151   1.06300000e+03 
96.115   1.06400000e+03 
96.079   1.14400000e+03 
96.043   1.18800000e+03 
96.007   1.21500000e+03 
95.971   1.23800000e+03 
95.935   1.30100000e+03 
95.899   1.31000000e+03 
95.863   1.41200000e+03 
95.827   1.43500000e+03 
95.791   1.46500000e+03 
95.755   1.46600000e+03 
95.720   1.52500000e+03 
95.684   1.59700000e+03 
95.648   1.73400000e+03 
95.612   1.70400000e+03 
95.576   1.76500000e+03 
95.540   1.80700000e+03 
95.504   1.96100000e+03 
95.468   2.02500000e+03 
95.432   1.99500000e+03 
95.396   2.20600000e+03 
95.360   2.21400000e+03 
95.324   2.45900000e+03 
95.288   2.44600000e+03 
95.252   2.50600000e+03 
95.216   2.64500000e+03 
95.180   2.75900000e+03 
95.145   2.85600000e+03 
95.109   2.90800000e+03 
95.073   3.05100000e+03 
95.037   3.14300000e+03 
95.001   3.20000000e+03 
94.965   3.45000000e+03 
94.929   3.54500000e+03 
94.893   3.46500000e+03 
94.857   3.59100000e+03 
94.821   3.77400000e+03 
94.785   3.64700000e+03 
94.749   3.75700000e+03 
94.713   3.78700000e+03 
94.677   3.74600000e+03 
94.641   3.70200000e+03 
94.605   3.72800000e+03 
94.570   3.66600000e+03 
94.534   3.51200000e+03 
94.498   3.45600000e+03 
94.462   3.34900000e+03 
94.426   3.10800000e+03 
94.390   2.99500000e+03 
94.354   2.78500000e+03 
94.318   2.50800000e+03 
94.282   2.45900000e+03 
94.246   2.16400000e+03 
94.210   1.89400000e+03 
94.174   1.83900000e+03 
94.138   1.71100000e+03 
94.102   1.47800000e+03 
94.066   1.44700000e+03 
94.030   1.26500000e+03 
93.995   1.16300000e+03 
93.959   1.15100000e+03 
93.923   1.08500000e+03 
93.887   9.66000000e+02 
93.851   9.53000000e+02 
93.815   9.54000000e+02 
93.779   8.47000000e+02 
93.743   8.82000000e+02 
93.707   8.34000000e+02 
93.671   8.62000000e+02 
93.635   8.12000000e+02 
93.599   7.80000000e+02 
93.563   8.00000000e+02 
93.527   7.95000000e+02 
93.491   8.01000000e+02 
93.455   7.09000000e+02 
93.420   7.49000000e+02 
93.384   7.35000000e+02 
93.348   7.70000000e+02 
93.312   7.07000000e+02 
93.276   7.63000000e+02 
93.240   7.54000000e+02 
93.204   7.73000000e+02 
93.168   7.46000000e+02 
93.132   7.20000000e+02 
93.096   7.51000000e+02 
93.060   7.78000000e+02 
93.024   8.20000000e+02 
92.988   8.01000000e+02 
92.952   8.26000000e+02 
92.916   7.97000000e+02 
92.880   7.89000000e+02 
92.845   7.70000000e+02 
92.809   8.29000000e+02 
92.773   8.87000000e+02 
92.737   8.82000000e+02 
92.701   8.72000000e+02 
92.665   9.23000000e+02 
92.629   9.21000000e+02 
92.593   9.77000000e+02 
92.557   9.76000000e+02 
92.521   9.54000000e+02 
92.485   1.04300000e+03 
92.449   1.14600000e+03 
92.413   1.15200000e+03 
92.377   1.18100000e+03 
92.341   1.25800000e+03 
92.305   1.31600000e+03 
92.270   1.33300000e+03 
92.234   1.39500000e+03 
92.198   1.38800000e+03 
92.162   1.46100000e+03 
92.126   1.54200000e+03 
92.090   1.62900000e+03 
92.054   1.80100000e+03 
92.018   1.70800000e+03 
91.982   1.87100000e+03 
91.946   1.85900000e+03 
91.910   2.01300000e+03 
91.874   2.17600000e+03 
91.838   2.23000000e+03 
91.802   2.31700000e+03 
91.766   2.41400000e+03 
91.730   2.42800000e+03 
91.695   2.56600000e+03 
91.659   2.68200000e+03 
91.623   2.82100000e+03 
91.587   2.94100000e+03 
91.551   3.09100000e+03 
91.515   3.23100000e+03 
91.479   3.29100000e+03 
91.443   3.47100000e+03 
91.407   3.53400000e+03 
91.371   3.68900000e+03 
91.335   3.83100000e+03 
91.299   4.04400000e+03 
91.263   4.15000000e+03 
91.227   4.22000000e+03 
91.191   4.27600000e+03 
91.155   4.31000000e+03 
91.120   4.39000000e+03 
91.084   4.65500000e+03 
91.048   4.59600000e+03 
91.012   4.58100000e+03 
90.976   4.51400000e+03 
90.940   4.50000000e+03 
90.904   4.32700000e+03 
90.868   4.37800000e+03 
90.832   4.12900000e+03 
90.796   3.91300000e+03 
90.760   3.69500000e+03 
90.724   3.56300000e+03 
90.688   3.16300000e+03 
90.652   3.00700000e+03 
90.616   2.75600000e+03 
90.580   2.31300000e+03 
90.545   2.20500000e+03 
90.509   1.95500000e+03 
90.473   1.73400000e+03 
90.437   1.52300000e+03 
90.401   1.33400000e+03 
90.365   1.18200000e+03 
90.329   1.06200000e+03 
90.293   9.77000000e+02 
90.257   9.84000000e+02 
90.221   8.65000000e+02 
90.185   7.63000000e+02 
90.149   7.53000000e+02 
90.113   6.70000000e+02 
90.077   6.69000000e+02 
90.041   6.34000000e+02 
90.005   6.31000000e+02 
89.970   5.78000000e+02 
89.934   5.91000000e+02 
89.898   5.37000000e+02 
89.862   4.75000000e+02 
89.826   5.05000000e+02 
89.790   4.89000000e+02 
89.754   4.38000000e+02 
89.718   4.51000000e+02 
89.682   4.12000000e+02 
89.646   4.41000000e+02 
89.610   4.39000000e+02 
89.574   4.32000000e+02 
89.538   3.96000000e+02 
89.502   3.79000000e+02 
89.466   3.89000000e+02 
89.430   3.57000000e+02 
89.395   3.56000000e+02 
89.359   3.95000000e+02 
89.323   3.44000000e+02 
89.287   3.76000000e+02 
89.251   3.38000000e+02 
89.215   3.54000000e+02 
89.179   3.72000000e+02 
89.143   3.60000000e+02 
89.107   3.24000000e+02 
89.071   3.49000000e+02 
89.035   3.19000000e+02 
88.999   3.06000000e+02 
88.963   2.92000000e+02 
88.927   2.99000000e+02 
88.891   3.27000000e+02 
88.855   3.26000000e+02 
88.820   3.08000000e+02 
88.784   2.93000000e+02 
88.748   3.26000000e+02 
88.712   3.25000000e+02 
88.676   3.06000000e+02 
88.640   3.00000000e+02 
88.604   3.05000000e+02 
88.568   3.23000000e+02 
88.532   3.00000000e+02 
88.496   2.94000000e+02 
88.460   2.91000000e+02 
88.424   3.10000000e+02 
88.388   2.78000000e+02 
88.352   2.99000000e+02 
88.316   2.62000000e+02 
88.280   2.74000000e+02 
88.245   2.82000000e+02 
88.209   2.51000000e+02 
88.173   3.02000000e+02 
88.137   2.88000000e+02 
88.101   3.00000000e+02 
88.065   2.40000000e+02 
88.029   3.00000000e+02 
87.993   3.01000000e+02 
87.957   2.73000000e+02 
87.921   2.82000000e+02 
87.885   2.50000000e+02 
87.849   2.65000000e+02 
87.813   2.74000000e+02 
87.777   2.72000000e+02 
87.741   2.74000000e+02 
87.705   2.47000000e+02 
87.670   2.53000000e+02 
87.634   2.67000000e+02 
87.598   2.46000000e+02 
87.562   2.49000000e+02 
87.526   2.60000000e+02 
87.490   2.57000000e+02 
87.454   2.47000000e+02 
87.418   2.49000000e+02 
87.382   2.37000000e+02 
87.346   2.63000000e+02 
87.310   2.68000000e+02 
87.274   2.55000000e+02 
87.238   2.53000000e+02 
87.202   2.62000000e+02 
87.166   2.61000000e+02 
87.130   2.48000000e+02 
87.095   2.59000000e+02 
87.059   2.36000000e+02 
87.023   2.25000000e+02 

