EXPERIMENT FILE
Version = 2

[ Experiment Parameters ]
Experiment Description= <none> 
Number_of_Regions_in_Experiment= 1 

Original_File_name= C:\alexesca\data\Noise]\asdsasda.xps 
Instrument= HP ESCA West
Date= 11-19-2014
Time=  23:58:02

[ Layer Parameters ]
Layer_Type= XPS

[ Region 1 Parameters ]
Region_Description = Quick_sweep_0.5eVstep_x1           
BEcenter(eV) = 575.000000
BEwidth(eV) = 162.000000
BEstep(eV) = 0.503125
Dwell_Time(sec) = 1.000000
N_o_scans = 1  
N_o_Channels = 322  
Scan_mode = 0  (DITHERED)

[ L= 1 R= 1 ]
BEcenter= 575.000 
BEwidth= -161.503
Excitation= 1486.600
Time_p_channel= 18.286  
Size= 322
655.752  1.50100000e+03 
655.248  1.48600000e+03 
654.745  1.34100000e+03 
654.242  1.48700000e+03 
653.739  1.46100000e+03 
653.236  1.45200000e+03 
652.733  1.50100000e+03 
652.230  1.42500000e+03 
651.727  1.45900000e+03 
651.223  1.45200000e+03 
650.720  1.51300000e+03 
650.217  1.48700000e+03 
649.714  1.47100000e+03 
649.211  1.45900000e+03 
648.708  1.47600000e+03 
648.205  1.46200000e+03 
647.702  1.45100000e+03 
647.198  1.49900000e+03 
646.695  1.41100000e+03 
646.192  1.43900000e+03 
645.689  1.43900000e+03 
645.186  1.50400000e+03 
644.683  1.36000000e+03 
644.180  1.47500000e+03 
643.677  1.38700000e+03 
643.173  1.42300000e+03 
642.670  1.49200000e+03 
642.167  1.45300000e+03 
641.664  1.46500000e+03 
641.161  1.35900000e+03 
640.658  1.45800000e+03 
640.155  1.45100000e+03 
639.652  1.49000000e+03 
639.148  1.46500000e+03 
638.645  1.54400000e+03 
638.142  1.47700000e+03 
637.639  1.50000000e+03 
637.136  1.44300000e+03 
636.633  1.47700000e+03 
636.130  1.44400000e+03 
635.627  1.52500000e+03 
635.123  1.42200000e+03 
634.620  1.46900000e+03 
634.117  1.49600000e+03 
633.614  1.46500000e+03 
633.111  1.45300000e+03 
632.608  1.51300000e+03 
632.105  1.49800000e+03 
631.602  1.48000000e+03 
631.098  1.50500000e+03 
630.595  1.44100000e+03 
630.092  1.52300000e+03 
629.589  1.41900000e+03 
629.086  1.47600000e+03 
628.583  1.42000000e+03 
628.080  1.39000000e+03 
627.577  1.46100000e+03 
627.073  1.47000000e+03 
626.570  1.52200000e+03 
626.067  1.44200000e+03 
625.564  1.39100000e+03 
625.061  1.42300000e+03 
624.558  1.46400000e+03 
624.055  1.48700000e+03 
623.552  1.46000000e+03 
623.048  1.47300000e+03 
622.545  1.45800000e+03 
622.042  1.47000000e+03 
621.539  1.47600000e+03 
621.036  1.49100000e+03 
620.533  1.49700000e+03 
620.030  1.48600000e+03 
619.527  1.44600000e+03 
619.023  1.46200000e+03 
618.520  1.43300000e+03 
618.017  1.48500000e+03 
617.514  1.47500000e+03 
617.011  1.47600000e+03 
616.508  1.47300000e+03 
616.005  1.49200000e+03 
615.502  1.44800000e+03 
614.998  1.50200000e+03 
614.495  1.49600000e+03 
613.992  1.41200000e+03 
613.489  1.49300000e+03 
612.986  1.44300000e+03 
612.483  1.39500000e+03 
611.980  1.44500000e+03 
611.477  1.50400000e+03 
610.973  1.52800000e+03 
610.470  1.52600000e+03 
609.967  1.45200000e+03 
609.464  1.41100000e+03 
608.961  1.50000000e+03 
608.458  1.51200000e+03 
607.955  1.48900000e+03 
607.452  1.48000000e+03 
606.948  1.44500000e+03 
606.445  1.44600000e+03 
605.942  1.49900000e+03 
605.439  1.52700000e+03 
604.936  1.51100000e+03 
604.433  1.46800000e+03 
603.930  1.47700000e+03 
603.427  1.49500000e+03 
602.923  1.40600000e+03 
602.420  1.42400000e+03 
601.917  1.49300000e+03 
601.414  1.55600000e+03 
600.911  1.41100000e+03 
600.408  1.42800000e+03 
599.905  1.46300000e+03 
599.402  1.51600000e+03 
598.898  1.47200000e+03 
598.395  1.47300000e+03 
597.892  1.42800000e+03 
597.389  1.47100000e+03 
596.886  1.44900000e+03 
596.383  1.49700000e+03 
595.880  1.50700000e+03 
595.377  1.54600000e+03 
594.873  1.47100000e+03 
594.370  1.40900000e+03 
593.867  1.44400000e+03 
593.364  1.39100000e+03 
592.861  1.50100000e+03 
592.358  1.53200000e+03 
591.855  1.48400000e+03 
591.352  1.48600000e+03 
590.848  1.43000000e+03 
590.345  1.44900000e+03 
589.842  1.48600000e+03 
589.339  1.44600000e+03 
588.836  1.51300000e+03 
588.333  1.51500000e+03 
587.830  1.42000000e+03 
587.327  1.48100000e+03 
586.823  1.48600000e+03 
586.320  1.45400000e+03 
585.817  1.37500000e+03 
585.314  1.52600000e+03 
584.811  1.50100000e+03 
584.308  1.46400000e+03 
583.805  1.50200000e+03 
583.302  1.47200000e+03 
582.798  1.47600000e+03 
582.295  1.50500000e+03 
581.792  1.48000000e+03 
581.289  1.45400000e+03 
580.786  1.39600000e+03 
580.283  1.45500000e+03 
579.780  1.52600000e+03 
579.277  1.45800000e+03 
578.773  1.46300000e+03 
578.270  1.44800000e+03 
577.767  1.45200000e+03 
577.264  1.54700000e+03 
576.761  1.41100000e+03 
576.258  1.46800000e+03 
575.755  1.45200000e+03 
575.252  1.44500000e+03 
574.748  1.47700000e+03 
574.245  1.43100000e+03 
573.742  1.52700000e+03 
573.239  1.47800000e+03 
572.736  1.46200000e+03 
572.233  1.46200000e+03 
571.730  1.43600000e+03 
571.227  1.51400000e+03 
570.723  1.43700000e+03 
570.220  1.43700000e+03 
569.717  1.49900000e+03 
569.214  1.49200000e+03 
568.711  1.40200000e+03 
568.208  1.47500000e+03 
567.705  1.43100000e+03 
567.202  1.46500000e+03 
566.698  1.45700000e+03 
566.195  1.47700000e+03 
565.692  1.42800000e+03 
565.189  1.45300000e+03 
564.686  1.47400000e+03 
564.183  1.47700000e+03 
563.680  1.43300000e+03 
563.177  1.38300000e+03 
562.673  1.49300000e+03 
562.170  1.40300000e+03 
561.667  1.45000000e+03 
561.164  1.42200000e+03 
560.661  1.50000000e+03 
560.158  1.47000000e+03 
559.655  1.47500000e+03 
559.152  1.46900000e+03 
558.648  1.43000000e+03 
558.145  1.38900000e+03 
557.642  1.46200000e+03 
557.139  1.49600000e+03 
556.636  1.47100000e+03 
556.133  1.44900000e+03 
555.630  1.46200000e+03 
555.127  1.49700000e+03 
554.623  1.46900000e+03 
554.120  1.46400000e+03 
553.617  1.44200000e+03 
553.114  1.39800000e+03 
552.611  1.42300000e+03 
552.108  1.48700000e+03 
551.605  1.41100000e+03 
551.102  1.42400000e+03 
550.598  1.42700000e+03 
550.095  1.49400000e+03 
549.592  1.48800000e+03 
549.089  1.40300000e+03 
548.586  1.45000000e+03 
548.083  1.49300000e+03 
547.580  1.49500000e+03 
547.077  1.52000000e+03 
546.573  1.47300000e+03 
546.070  1.45300000e+03 
545.567  1.46600000e+03 
545.064  1.50300000e+03 
544.561  1.46900000e+03 
544.058  1.45200000e+03 
543.555  1.57400000e+03 
543.052  1.37600000e+03 
542.548  1.41700000e+03 
542.045  1.48000000e+03 
541.542  1.40000000e+03 
541.039  1.42100000e+03 
540.536  1.43600000e+03 
540.033  1.47200000e+03 
539.530  1.48900000e+03 
539.027  1.49500000e+03 
538.523  1.45600000e+03 
538.020  1.45900000e+03 
537.517  1.46700000e+03 
537.014  1.54400000e+03 
536.511  1.47600000e+03 
536.008  1.43500000e+03 
535.505  1.47600000e+03 
535.002  1.49300000e+03 
534.498  1.47200000e+03 
533.995  1.49800000e+03 
533.492  1.47100000e+03 
532.989  1.46600000e+03 
532.486  1.45100000e+03 
531.983  1.41700000e+03 
531.480  1.46600000e+03 
530.977  1.50000000e+03 
530.473  1.45300000e+03 
529.970  1.46000000e+03 
529.467  1.51700000e+03 
528.964  1.51200000e+03 
528.461  1.47600000e+03 
527.958  1.36400000e+03 
527.455  1.48200000e+03 
526.952  1.49100000e+03 
526.448  1.39600000e+03 
525.945  1.48800000e+03 
525.442  1.46400000e+03 
524.939  1.44100000e+03 
524.436  1.47900000e+03 
523.933  1.42700000e+03 
523.430  1.46400000e+03 
522.927  1.51600000e+03 
522.423  1.42000000e+03 
521.920  1.47800000e+03 
521.417  1.48500000e+03 
520.914  1.48500000e+03 
520.411  1.44100000e+03 
519.908  1.47600000e+03 
519.405  1.46100000e+03 
518.902  1.50200000e+03 
518.398  1.50100000e+03 
517.895  1.42400000e+03 
517.392  1.47900000e+03 
516.889  1.46300000e+03 
516.386  1.53300000e+03 
515.883  1.41000000e+03 
515.380  1.52600000e+03 
514.877  1.46800000e+03 
514.373  1.43900000e+03 
513.870  1.48800000e+03 
513.367  1.55200000e+03 
512.864  1.48400000e+03 
512.361  1.42500000e+03 
511.858  1.43800000e+03 
511.355  1.43000000e+03 
510.852  1.37900000e+03 
510.348  1.50000000e+03 
509.845  1.44700000e+03 
509.342  1.44100000e+03 
508.839  1.44500000e+03 
508.336  1.50500000e+03 
507.833  1.42900000e+03 
507.330  1.46400000e+03 
506.827  1.51800000e+03 
506.323  1.48200000e+03 
505.820  1.54600000e+03 
505.317  1.46600000e+03 
504.814  1.47000000e+03 
504.311  1.47400000e+03 
503.808  1.49600000e+03 
503.305  1.48700000e+03 
502.802  1.51800000e+03 
502.298  1.44600000e+03 
501.795  1.55400000e+03 
501.292  1.46700000e+03 
500.789  1.52300000e+03 
500.286  1.51300000e+03 
499.783  1.41300000e+03 
499.280  1.42600000e+03 
498.777  1.48000000e+03 
498.273  1.37000000e+03 
497.770  1.53400000e+03 
497.267  1.45400000e+03 
496.764  1.43700000e+03 
496.261  1.43000000e+03 
495.758  1.46800000e+03 
495.255  1.53300000e+03 
494.752  1.47300000e+03 
494.248  1.44200000e+03 

