EXPERIMENT FILE
Version = 2

[ Experiment Parameters ]
Experiment Description= Five 
Number_of_Regions_in_Experiment= 10 

Original_File_name= C:\alexesca\data\Noise]\Attempt1_50Cu111014.xps 
Instrument= HP ESCA West
Date= 11-12-2014
Time=  15:01:48

[ Layer Parameters ]
Layer_Type= XPS

[ Region 1 Parameters ]
Region_Description = Fixed552eV                         
BEcenter(eV) = 552.000000
BEwidth(eV) = 9.200000
BEstep(eV) = 0.035938
Dwell_Time(sec) = 1.000000
N_o_scans = 1000  
N_o_Channels = 256  
Scan_mode = 1  (FIXED)

[ Region 2 Parameters ]
Region_Description = Fixed552eV                         
BEcenter(eV) = 552.000000
BEwidth(eV) = 9.200000
BEstep(eV) = 0.035938
Dwell_Time(sec) = 1.000000
N_o_scans = 1000  
N_o_Channels = 256  
Scan_mode = 1  (FIXED)

[ Region 3 Parameters ]
Region_Description = Fixed552eV                         
BEcenter(eV) = 552.000000
BEwidth(eV) = 9.200000
BEstep(eV) = 0.035938
Dwell_Time(sec) = 1.000000
N_o_scans = 1000  
N_o_Channels = 256  
Scan_mode = 1  (FIXED)

[ Region 4 Parameters ]
Region_Description = Fixed552eV                         
BEcenter(eV) = 552.000000
BEwidth(eV) = 9.200000
BEstep(eV) = 0.035938
Dwell_Time(sec) = 1.000000
N_o_scans = 1000  
N_o_Channels = 256  
Scan_mode = 1  (FIXED)

[ Region 5 Parameters ]
Region_Description = Fixed552eV                         
BEcenter(eV) = 552.000000
BEwidth(eV) = 9.200000
BEstep(eV) = 0.035938
Dwell_Time(sec) = 1.000000
N_o_scans = 1000  
N_o_Channels = 256  
Scan_mode = 1  (FIXED)

[ Region 6 Parameters ]
Region_Description = Fixed552eV                         
BEcenter(eV) = 552.000000
BEwidth(eV) = 9.200000
BEstep(eV) = 0.035938
Dwell_Time(sec) = 1.000000
N_o_scans = 1000  
N_o_Channels = 256  
Scan_mode = 1  (FIXED)

[ Region 7 Parameters ]
Region_Description = Fixed552eV                         
BEcenter(eV) = 552.000000
BEwidth(eV) = 9.200000
BEstep(eV) = 0.035938
Dwell_Time(sec) = 1.000000
N_o_scans = 1000  
N_o_Channels = 256  
Scan_mode = 1  (FIXED)

[ Region 8 Parameters ]
Region_Description = Fixed552eV                         
BEcenter(eV) = 552.000000
BEwidth(eV) = 9.200000
BEstep(eV) = 0.035938
Dwell_Time(sec) = 1.000000
N_o_scans = 1000  
N_o_Channels = 256  
Scan_mode = 1  (FIXED)

[ Region 9 Parameters ]
Region_Description = Fixed552eV                         
BEcenter(eV) = 552.000000
BEwidth(eV) = 9.200000
BEstep(eV) = 0.035938
Dwell_Time(sec) = 1.000000
N_o_scans = 1000  
N_o_Channels = 256  
Scan_mode = 1  (FIXED)

[ Region 10 Parameters ]
Region_Description = Fixed552eV                         
BEcenter(eV) = 552.000000
BEwidth(eV) = 9.200000
BEstep(eV) = 0.035938
Dwell_Time(sec) = 1.000000
N_o_scans = 1000  
N_o_Channels = 256  
Scan_mode = 1  (FIXED)

[ L= 1 R= 1 ]
BEcenter= 552.000 
BEwidth= -9.200  
Excitation= 1486.600
Time_p_channel= 1000.000
Size= 256
556.600  1.73000000e+03 
556.564  1.65100000e+03 
556.528  1.70000000e+03 
556.492  1.74200000e+03 
556.456  1.65900000e+03 
556.420  1.65800000e+03 
556.384  1.75500000e+03 
556.347  1.72900000e+03 
556.311  1.79200000e+03 
556.275  1.71500000e+03 
556.239  1.69700000e+03 
556.203  1.79300000e+03 
556.167  1.75300000e+03 
556.131  1.76000000e+03 
556.095  1.87300000e+03 
556.059  1.71200000e+03 
556.023  1.77500000e+03 
555.987  1.80100000e+03 
555.951  1.70500000e+03 
555.915  1.85800000e+03 
555.878  1.82000000e+03 
555.842  1.85100000e+03 
555.806  1.80500000e+03 
555.770  1.82000000e+03 
555.734  1.77200000e+03 
555.698  1.76300000e+03 
555.662  1.76600000e+03 
555.626  1.74500000e+03 
555.590  1.80100000e+03 
555.554  1.77100000e+03 
555.518  1.87100000e+03 
555.482  1.87700000e+03 
555.445  1.92100000e+03 
555.409  1.83900000e+03 
555.373  1.83000000e+03 
555.337  1.84700000e+03 
555.301  1.94600000e+03 
555.265  1.78500000e+03 
555.229  1.90800000e+03 
555.193  1.84900000e+03 
555.157  1.90200000e+03 
555.121  1.88800000e+03 
555.085  1.84200000e+03 
555.049  1.94200000e+03 
555.013  1.93800000e+03 
554.976  1.97600000e+03 
554.940  1.88300000e+03 
554.904  1.93800000e+03 
554.868  1.98600000e+03 
554.832  1.88300000e+03 
554.796  2.01100000e+03 
554.760  2.03100000e+03 
554.724  1.94500000e+03 
554.688  1.95400000e+03 
554.652  2.00300000e+03 
554.616  1.99200000e+03 
554.580  1.91700000e+03 
554.544  2.05100000e+03 
554.507  1.94200000e+03 
554.471  2.07700000e+03 
554.435  2.00900000e+03 
554.399  1.92100000e+03 
554.363  2.02600000e+03 
554.327  1.91800000e+03 
554.291  2.00300000e+03 
554.255  1.94700000e+03 
554.219  2.00700000e+03 
554.183  2.02400000e+03 
554.147  1.97600000e+03 
554.111  2.04900000e+03 
554.075  2.00500000e+03 
554.038  2.01400000e+03 
554.002  2.07400000e+03 
553.966  1.96000000e+03 
553.930  2.13200000e+03 
553.894  2.05600000e+03 
553.858  2.10000000e+03 
553.822  2.10900000e+03 
553.786  2.09200000e+03 
553.750  2.08400000e+03 
553.714  2.16000000e+03 
553.678  2.20900000e+03 
553.642  2.14300000e+03 
553.605  2.13500000e+03 
553.569  2.10900000e+03 
553.533  2.09900000e+03 
553.497  2.06300000e+03 
553.461  2.07700000e+03 
553.425  2.07700000e+03 
553.389  2.15700000e+03 
553.353  2.09100000e+03 
553.317  2.08900000e+03 
553.281  2.06000000e+03 
553.245  2.05000000e+03 
553.209  2.04700000e+03 
553.173  2.03500000e+03 
553.136  1.98000000e+03 
553.100  2.06300000e+03 
553.064  2.00100000e+03 
553.028  2.00100000e+03 
552.992  1.97300000e+03 
552.956  1.99200000e+03 
552.920  2.10300000e+03 
552.884  2.09700000e+03 
552.848  2.07200000e+03 
552.812  2.06400000e+03 
552.776  1.94400000e+03 
552.740  1.99400000e+03 
552.704  2.04500000e+03 
552.667  2.08100000e+03 
552.631  1.94300000e+03 
552.595  2.00100000e+03 
552.559  2.00200000e+03 
552.523  2.00000000e+03 
552.487  1.97000000e+03 
552.451  1.88600000e+03 
552.415  1.90700000e+03 
552.379  1.90500000e+03 
552.343  1.95300000e+03 
552.307  1.92800000e+03 
552.271  1.89400000e+03 
552.235  1.93400000e+03 
552.198  1.91000000e+03 
552.162  1.97100000e+03 
552.126  1.89600000e+03 
552.090  1.86800000e+03 
552.054  2.01100000e+03 
552.018  1.94100000e+03 
551.982  1.92900000e+03 
551.946  1.89500000e+03 
551.910  1.78000000e+03 
551.874  1.78200000e+03 
551.838  1.91100000e+03 
551.802  1.84200000e+03 
551.765  1.82500000e+03 
551.729  1.85400000e+03 
551.693  1.79200000e+03 
551.657  1.82000000e+03 
551.621  1.93200000e+03 
551.585  1.81800000e+03 
551.549  1.86600000e+03 
551.513  1.79300000e+03 
551.477  1.80400000e+03 
551.441  1.77600000e+03 
551.405  1.84600000e+03 
551.369  1.80000000e+03 
551.333  1.80500000e+03 
551.296  1.76100000e+03 
551.260  1.72000000e+03 
551.224  1.81600000e+03 
551.188  1.73700000e+03 
551.152  1.69200000e+03 
551.116  1.69200000e+03 
551.080  1.71000000e+03 
551.044  1.71200000e+03 
551.008  1.79500000e+03 
550.972  1.71500000e+03 
550.936  1.78500000e+03 
550.900  1.72000000e+03 
550.864  1.73100000e+03 
550.827  1.69000000e+03 
550.791  1.69700000e+03 
550.755  1.65700000e+03 
550.719  1.60800000e+03 
550.683  1.64100000e+03 
550.647  1.62900000e+03 
550.611  1.69600000e+03 
550.575  1.69200000e+03 
550.539  1.63600000e+03 
550.503  1.66200000e+03 
550.467  1.63800000e+03 
550.431  1.67500000e+03 
550.395  1.62200000e+03 
550.358  1.66000000e+03 
550.322  1.60000000e+03 
550.286  1.63200000e+03 
550.250  1.68600000e+03 
550.214  1.64200000e+03 
550.178  1.59200000e+03 
550.142  1.69500000e+03 
550.106  1.57100000e+03 
550.070  1.73000000e+03 
550.034  1.63000000e+03 
549.998  1.68800000e+03 
549.962  1.62800000e+03 
549.925  1.65500000e+03 
549.889  1.61100000e+03 
549.853  1.56800000e+03 
549.817  1.65000000e+03 
549.781  1.57400000e+03 
549.745  1.60200000e+03 
549.709  1.58100000e+03 
549.673  1.59000000e+03 
549.637  1.64000000e+03 
549.601  1.59200000e+03 
549.565  1.52200000e+03 
549.529  1.53900000e+03 
549.493  1.50200000e+03 
549.456  1.56100000e+03 
549.420  1.51200000e+03 
549.384  1.46600000e+03 
549.348  1.48400000e+03 
549.312  1.47000000e+03 
549.276  1.50400000e+03 
549.240  1.48900000e+03 
549.204  1.52200000e+03 
549.168  1.46300000e+03 
549.132  1.50300000e+03 
549.096  1.50200000e+03 
549.060  1.40200000e+03 
549.024  1.48000000e+03 
548.987  1.43800000e+03 
548.951  1.42800000e+03 
548.915  1.46300000e+03 
548.879  1.44500000e+03 
548.843  1.37200000e+03 
548.807  1.36200000e+03 
548.771  1.39800000e+03 
548.735  1.40900000e+03 
548.699  1.30700000e+03 
548.663  1.32600000e+03 
548.627  1.31600000e+03 
548.591  1.34100000e+03 
548.555  1.32200000e+03 
548.518  1.26300000e+03 
548.482  1.28200000e+03 
548.446  1.32900000e+03 
548.410  1.31700000e+03 
548.374  1.24500000e+03 
548.338  1.29600000e+03 
548.302  1.34000000e+03 
548.266  1.26900000e+03 
548.230  1.27800000e+03 
548.194  1.31600000e+03 
548.158  1.29000000e+03 
548.122  1.29500000e+03 
548.085  1.25100000e+03 
548.049  1.25000000e+03 
548.013  1.26600000e+03 
547.977  1.26900000e+03 
547.941  1.24600000e+03 
547.905  1.27100000e+03 
547.869  1.27800000e+03 
547.833  1.11200000e+03 
547.797  1.26200000e+03 
547.761  1.02900000e+03 
547.725  9.46000000e+02 
547.689  1.13400000e+03 
547.653  8.88000000e+02 
547.616  9.34000000e+02 
547.580  9.97000000e+02 
547.544  6.46000000e+02 
547.508  6.46000000e+02 
547.472  3.44000000e+02 
547.436  0.00000000e+00 
547.400  0.00000000e+00 

[ L= 1 R= 2 ]
BEcenter= 552.000 
BEwidth= -9.200  
Excitation= 1486.600
Time_p_channel= 1000.000
Size= 256
556.600  1.69500000e+03 
556.564  1.64100000e+03 
556.528  1.68500000e+03 
556.492  1.66100000e+03 
556.456  1.72500000e+03 
556.420  1.72700000e+03 
556.384  1.80800000e+03 
556.347  1.79100000e+03 
556.311  1.78900000e+03 
556.275  1.72000000e+03 
556.239  1.70400000e+03 
556.203  1.76500000e+03 
556.167  1.73600000e+03 
556.131  1.77900000e+03 
556.095  1.72700000e+03 
556.059  1.74800000e+03 
556.023  1.74000000e+03 
555.987  1.80400000e+03 
555.951  1.78400000e+03 
555.915  1.82900000e+03 
555.878  1.76500000e+03 
555.842  1.71600000e+03 
555.806  1.78800000e+03 
555.770  1.80200000e+03 
555.734  1.81600000e+03 
555.698  1.81100000e+03 
555.662  1.86200000e+03 
555.626  1.83500000e+03 
555.590  1.78200000e+03 
555.554  1.81700000e+03 
555.518  1.88600000e+03 
555.482  1.82700000e+03 
555.445  1.77200000e+03 
555.409  1.89100000e+03 
555.373  1.84800000e+03 
555.337  1.86100000e+03 
555.301  1.88700000e+03 
555.265  1.87000000e+03 
555.229  1.87800000e+03 
555.193  1.88200000e+03 
555.157  1.92600000e+03 
555.121  1.86900000e+03 
555.085  1.95600000e+03 
555.049  1.88000000e+03 
555.013  1.91800000e+03 
554.976  1.95500000e+03 
554.940  1.88700000e+03 
554.904  1.88600000e+03 
554.868  1.96000000e+03 
554.832  1.92600000e+03 
554.796  2.14700000e+03 
554.760  1.97000000e+03 
554.724  1.95700000e+03 
554.688  1.98600000e+03 
554.652  2.00900000e+03 
554.616  2.03000000e+03 
554.580  2.00300000e+03 
554.544  2.01200000e+03 
554.507  2.06500000e+03 
554.471  2.02100000e+03 
554.435  1.96700000e+03 
554.399  2.04800000e+03 
554.363  1.93500000e+03 
554.327  1.92300000e+03 
554.291  1.99000000e+03 
554.255  1.90800000e+03 
554.219  1.97400000e+03 
554.183  2.02500000e+03 
554.147  2.01100000e+03 
554.111  2.03200000e+03 
554.075  1.96700000e+03 
554.038  1.98000000e+03 
554.002  2.02200000e+03 
553.966  2.03200000e+03 
553.930  2.08900000e+03 
553.894  1.99000000e+03 
553.858  2.10100000e+03 
553.822  2.11100000e+03 
553.786  2.08200000e+03 
553.750  2.09200000e+03 
553.714  2.07900000e+03 
553.678  2.11300000e+03 
553.642  2.07600000e+03 
553.605  2.19200000e+03 
553.569  2.10000000e+03 
553.533  2.09600000e+03 
553.497  2.14900000e+03 
553.461  2.17500000e+03 
553.425  2.21500000e+03 
553.389  2.06200000e+03 
553.353  2.07600000e+03 
553.317  2.09200000e+03 
553.281  2.01600000e+03 
553.245  2.09800000e+03 
553.209  2.00000000e+03 
553.173  2.00800000e+03 
553.136  2.05100000e+03 
553.100  2.06500000e+03 
553.064  2.05200000e+03 
553.028  2.06000000e+03 
552.992  2.02000000e+03 
552.956  2.03600000e+03 
552.920  2.00400000e+03 
552.884  1.98800000e+03 
552.848  2.01400000e+03 
552.812  2.05100000e+03 
552.776  1.90100000e+03 
552.740  2.02300000e+03 
552.704  1.96600000e+03 
552.667  2.02100000e+03 
552.631  2.02700000e+03 
552.595  1.99300000e+03 
552.559  1.84800000e+03 
552.523  1.93500000e+03 
552.487  1.98600000e+03 
552.451  1.89900000e+03 
552.415  1.95200000e+03 
552.379  1.94600000e+03 
552.343  1.89300000e+03 
552.307  1.95700000e+03 
552.271  1.91800000e+03 
552.235  1.87200000e+03 
552.198  1.94700000e+03 
552.162  1.91000000e+03 
552.126  1.92100000e+03 
552.090  1.91700000e+03 
552.054  1.93400000e+03 
552.018  1.94100000e+03 
551.982  1.89000000e+03 
551.946  1.91200000e+03 
551.910  1.93100000e+03 
551.874  1.89100000e+03 
551.838  1.85600000e+03 
551.802  1.81500000e+03 
551.765  1.84100000e+03 
551.729  1.84300000e+03 
551.693  1.83400000e+03 
551.657  1.89500000e+03 
551.621  1.85700000e+03 
551.585  1.76000000e+03 
551.549  1.80200000e+03 
551.513  1.78400000e+03 
551.477  1.78200000e+03 
551.441  1.76100000e+03 
551.405  1.79000000e+03 
551.369  1.78900000e+03 
551.333  1.75300000e+03 
551.296  1.75900000e+03 
551.260  1.77700000e+03 
551.224  1.71600000e+03 
551.188  1.76600000e+03 
551.152  1.73900000e+03 
551.116  1.73300000e+03 
551.080  1.69800000e+03 
551.044  1.72300000e+03 
551.008  1.72200000e+03 
550.972  1.73700000e+03 
550.936  1.75600000e+03 
550.900  1.72900000e+03 
550.864  1.61200000e+03 
550.827  1.71700000e+03 
550.791  1.66800000e+03 
550.755  1.73300000e+03 
550.719  1.59800000e+03 
550.683  1.67800000e+03 
550.647  1.67700000e+03 
550.611  1.64700000e+03 
550.575  1.75100000e+03 
550.539  1.64900000e+03 
550.503  1.56100000e+03 
550.467  1.66000000e+03 
550.431  1.63500000e+03 
550.395  1.62700000e+03 
550.358  1.63900000e+03 
550.322  1.67000000e+03 
550.286  1.68700000e+03 
550.250  1.69500000e+03 
550.214  1.65600000e+03 
550.178  1.62600000e+03 
550.142  1.64200000e+03 
550.106  1.73400000e+03 
550.070  1.66900000e+03 
550.034  1.70900000e+03 
549.998  1.68400000e+03 
549.962  1.60000000e+03 
549.925  1.67200000e+03 
549.889  1.55400000e+03 
549.853  1.62200000e+03 
549.817  1.59500000e+03 
549.781  1.61600000e+03 
549.745  1.60100000e+03 
549.709  1.60900000e+03 
549.673  1.54800000e+03 
549.637  1.45300000e+03 
549.601  1.58300000e+03 
549.565  1.49100000e+03 
549.529  1.63100000e+03 
549.493  1.43900000e+03 
549.456  1.50500000e+03 
549.420  1.52700000e+03 
549.384  1.53400000e+03 
549.348  1.45800000e+03 
549.312  1.50700000e+03 
549.276  1.49900000e+03 
549.240  1.45800000e+03 
549.204  1.49000000e+03 
549.168  1.51100000e+03 
549.132  1.50700000e+03 
549.096  1.41300000e+03 
549.060  1.39100000e+03 
549.024  1.39800000e+03 
548.987  1.45600000e+03 
548.951  1.42800000e+03 
548.915  1.35900000e+03 
548.879  1.39800000e+03 
548.843  1.39100000e+03 
548.807  1.43200000e+03 
548.771  1.33000000e+03 
548.735  1.35000000e+03 
548.699  1.39900000e+03 
548.663  1.36400000e+03 
548.627  1.35900000e+03 
548.591  1.39000000e+03 
548.555  1.30000000e+03 
548.518  1.38000000e+03 
548.482  1.35800000e+03 
548.446  1.31800000e+03 
548.410  1.29500000e+03 
548.374  1.35600000e+03 
548.338  1.24100000e+03 
548.302  1.29500000e+03 
548.266  1.30000000e+03 
548.230  1.33700000e+03 
548.194  1.33800000e+03 
548.158  1.24800000e+03 
548.122  1.27900000e+03 
548.085  1.27500000e+03 
548.049  1.26600000e+03 
548.013  1.32400000e+03 
547.977  1.23100000e+03 
547.941  1.21500000e+03 
547.905  1.20900000e+03 
547.869  1.23400000e+03 
547.833  1.07800000e+03 
547.797  1.29500000e+03 
547.761  9.84000000e+02 
547.725  9.74000000e+02 
547.689  1.10400000e+03 
547.653  8.83000000e+02 
547.616  9.47000000e+02 
547.580  9.25000000e+02 
547.544  6.83000000e+02 
547.508  6.45000000e+02 
547.472  3.56000000e+02 
547.436  0.00000000e+00 
547.400  0.00000000e+00 

[ L= 1 R= 3 ]
BEcenter= 552.000 
BEwidth= -9.200  
Excitation= 1486.600
Time_p_channel= 1000.000
Size= 256
556.600  1.62100000e+03 
556.564  1.65000000e+03 
556.528  1.67600000e+03 
556.492  1.65500000e+03 
556.456  1.77400000e+03 
556.420  1.72300000e+03 
556.384  1.84500000e+03 
556.347  1.74500000e+03 
556.311  1.80300000e+03 
556.275  1.78700000e+03 
556.239  1.82500000e+03 
556.203  1.79900000e+03 
556.167  1.79500000e+03 
556.131  1.75900000e+03 
556.095  1.85400000e+03 
556.059  1.79800000e+03 
556.023  1.79800000e+03 
555.987  1.72100000e+03 
555.951  1.71400000e+03 
555.915  1.69000000e+03 
555.878  1.74800000e+03 
555.842  1.80000000e+03 
555.806  1.81900000e+03 
555.770  1.74200000e+03 
555.734  1.78800000e+03 
555.698  1.88000000e+03 
555.662  1.90700000e+03 
555.626  1.81100000e+03 
555.590  1.87200000e+03 
555.554  1.82800000e+03 
555.518  1.82900000e+03 
555.482  1.79700000e+03 
555.445  1.90900000e+03 
555.409  1.86900000e+03 
555.373  1.90400000e+03 
555.337  1.79500000e+03 
555.301  1.88300000e+03 
555.265  1.90400000e+03 
555.229  1.84500000e+03 
555.193  1.90000000e+03 
555.157  1.93800000e+03 
555.121  1.84100000e+03 
555.085  1.89100000e+03 
555.049  1.84900000e+03 
555.013  1.98800000e+03 
554.976  1.96900000e+03 
554.940  1.94900000e+03 
554.904  1.87400000e+03 
554.868  2.04100000e+03 
554.832  1.95600000e+03 
554.796  2.01900000e+03 
554.760  1.96100000e+03 
554.724  1.90500000e+03 
554.688  2.03200000e+03 
554.652  2.02000000e+03 
554.616  2.03400000e+03 
554.580  1.94500000e+03 
554.544  2.01600000e+03 
554.507  1.95100000e+03 
554.471  2.07000000e+03 
554.435  1.96800000e+03 
554.399  2.05800000e+03 
554.363  1.97400000e+03 
554.327  1.95300000e+03 
554.291  1.99600000e+03 
554.255  1.90000000e+03 
554.219  1.99300000e+03 
554.183  1.97800000e+03 
554.147  2.01100000e+03 
554.111  2.03300000e+03 
554.075  1.96400000e+03 
554.038  2.01000000e+03 
554.002  2.01600000e+03 
553.966  2.09600000e+03 
553.930  2.09200000e+03 
553.894  2.16300000e+03 
553.858  2.13800000e+03 
553.822  2.13800000e+03 
553.786  1.97200000e+03 
553.750  2.07500000e+03 
553.714  2.10000000e+03 
553.678  2.09000000e+03 
553.642  2.12800000e+03 
553.605  2.12900000e+03 
553.569  2.11800000e+03 
553.533  2.19000000e+03 
553.497  2.15600000e+03 
553.461  2.22400000e+03 
553.425  2.10900000e+03 
553.389  2.07300000e+03 
553.353  2.10200000e+03 
553.317  2.08900000e+03 
553.281  2.16400000e+03 
553.245  2.05400000e+03 
553.209  2.11000000e+03 
553.173  2.10400000e+03 
553.136  2.01300000e+03 
553.100  2.02500000e+03 
553.064  2.03300000e+03 
553.028  2.11400000e+03 
552.992  2.01600000e+03 
552.956  2.13800000e+03 
552.920  2.02800000e+03 
552.884  2.11400000e+03 
552.848  2.03200000e+03 
552.812  1.96500000e+03 
552.776  2.01900000e+03 
552.740  2.01800000e+03 
552.704  2.01200000e+03 
552.667  1.96600000e+03 
552.631  2.00700000e+03 
552.595  1.95600000e+03 
552.559  1.97800000e+03 
552.523  2.03700000e+03 
552.487  1.96100000e+03 
552.451  1.93000000e+03 
552.415  1.86900000e+03 
552.379  1.98700000e+03 
552.343  1.95900000e+03 
552.307  1.91600000e+03 
552.271  1.96300000e+03 
552.235  1.87400000e+03 
552.198  1.88500000e+03 
552.162  1.89500000e+03 
552.126  1.90900000e+03 
552.090  1.92800000e+03 
552.054  1.87800000e+03 
552.018  1.90200000e+03 
551.982  1.82600000e+03 
551.946  1.86200000e+03 
551.910  1.89100000e+03 
551.874  1.90400000e+03 
551.838  1.91300000e+03 
551.802  1.83500000e+03 
551.765  1.88300000e+03 
551.729  1.90900000e+03 
551.693  1.83600000e+03 
551.657  1.91800000e+03 
551.621  1.80300000e+03 
551.585  1.78000000e+03 
551.549  1.82300000e+03 
551.513  1.87800000e+03 
551.477  1.80600000e+03 
551.441  1.76700000e+03 
551.405  1.73300000e+03 
551.369  1.82400000e+03 
551.333  1.78100000e+03 
551.296  1.84700000e+03 
551.260  1.74700000e+03 
551.224  1.78200000e+03 
551.188  1.75300000e+03 
551.152  1.84100000e+03 
551.116  1.78900000e+03 
551.080  1.70000000e+03 
551.044  1.78100000e+03 
551.008  1.70700000e+03 
550.972  1.73400000e+03 
550.936  1.78600000e+03 
550.900  1.66400000e+03 
550.864  1.73600000e+03 
550.827  1.65100000e+03 
550.791  1.76500000e+03 
550.755  1.73500000e+03 
550.719  1.71300000e+03 
550.683  1.70200000e+03 
550.647  1.72200000e+03 
550.611  1.62100000e+03 
550.575  1.67600000e+03 
550.539  1.69500000e+03 
550.503  1.70400000e+03 
550.467  1.60700000e+03 
550.431  1.73300000e+03 
550.395  1.67800000e+03 
550.358  1.61200000e+03 
550.322  1.61900000e+03 
550.286  1.57500000e+03 
550.250  1.65000000e+03 
550.214  1.71500000e+03 
550.178  1.69700000e+03 
550.142  1.70200000e+03 
550.106  1.70100000e+03 
550.070  1.62400000e+03 
550.034  1.63000000e+03 
549.998  1.60200000e+03 
549.962  1.65700000e+03 
549.925  1.64200000e+03 
549.889  1.59900000e+03 
549.853  1.57800000e+03 
549.817  1.69300000e+03 
549.781  1.62500000e+03 
549.745  1.53200000e+03 
549.709  1.59000000e+03 
549.673  1.57900000e+03 
549.637  1.55200000e+03 
549.601  1.50300000e+03 
549.565  1.59800000e+03 
549.529  1.56100000e+03 
549.493  1.58000000e+03 
549.456  1.48900000e+03 
549.420  1.48400000e+03 
549.384  1.47500000e+03 
549.348  1.54300000e+03 
549.312  1.46700000e+03 
549.276  1.48800000e+03 
549.240  1.51300000e+03 
549.204  1.53000000e+03 
549.168  1.53000000e+03 
549.132  1.44100000e+03 
549.096  1.36400000e+03 
549.060  1.44200000e+03 
549.024  1.49000000e+03 
548.987  1.40300000e+03 
548.951  1.41500000e+03 
548.915  1.35000000e+03 
548.879  1.40100000e+03 
548.843  1.41300000e+03 
548.807  1.49800000e+03 
548.771  1.37600000e+03 
548.735  1.35000000e+03 
548.699  1.41900000e+03 
548.663  1.36100000e+03 
548.627  1.35600000e+03 
548.591  1.31500000e+03 
548.555  1.26000000e+03 
548.518  1.30800000e+03 
548.482  1.35600000e+03 
548.446  1.26500000e+03 
548.410  1.38700000e+03 
548.374  1.31400000e+03 
548.338  1.27500000e+03 
548.302  1.31300000e+03 
548.266  1.31000000e+03 
548.230  1.24100000e+03 
548.194  1.35300000e+03 
548.158  1.26600000e+03 
548.122  1.31100000e+03 
548.085  1.26600000e+03 
548.049  1.28000000e+03 
548.013  1.23800000e+03 
547.977  1.25300000e+03 
547.941  1.25700000e+03 
547.905  1.31900000e+03 
547.869  1.28800000e+03 
547.833  1.10800000e+03 
547.797  1.24800000e+03 
547.761  9.82000000e+02 
547.725  9.82000000e+02 
547.689  1.07200000e+03 
547.653  8.48000000e+02 
547.616  9.46000000e+02 
547.580  9.55000000e+02 
547.544  7.11000000e+02 
547.508  5.71000000e+02 
547.472  3.43000000e+02 
547.436  0.00000000e+00 
547.400  0.00000000e+00 

[ L= 1 R= 4 ]
BEcenter= 552.000 
BEwidth= -9.200  
Excitation= 1486.600
Time_p_channel= 1000.000
Size= 256
556.600  1.67300000e+03 
556.564  1.74100000e+03 
556.528  1.63000000e+03 
556.492  1.71400000e+03 
556.456  1.72500000e+03 
556.420  1.76600000e+03 
556.384  1.85800000e+03 
556.347  1.77500000e+03 
556.311  1.81500000e+03 
556.275  1.76200000e+03 
556.239  1.78900000e+03 
556.203  1.78600000e+03 
556.167  1.78600000e+03 
556.131  1.82800000e+03 
556.095  1.71500000e+03 
556.059  1.78500000e+03 
556.023  1.89300000e+03 
555.987  1.70900000e+03 
555.951  1.82700000e+03 
555.915  1.81300000e+03 
555.878  1.75600000e+03 
555.842  1.84600000e+03 
555.806  1.83300000e+03 
555.770  1.81300000e+03 
555.734  1.71300000e+03 
555.698  1.81600000e+03 
555.662  1.90000000e+03 
555.626  1.78600000e+03 
555.590  1.81600000e+03 
555.554  1.83500000e+03 
555.518  1.91200000e+03 
555.482  1.88300000e+03 
555.445  1.85100000e+03 
555.409  1.87400000e+03 
555.373  1.85200000e+03 
555.337  1.87600000e+03 
555.301  1.88200000e+03 
555.265  1.84300000e+03 
555.229  1.96800000e+03 
555.193  1.89000000e+03 
555.157  1.93500000e+03 
555.121  1.86000000e+03 
555.085  1.90000000e+03 
555.049  1.89300000e+03 
555.013  1.92800000e+03 
554.976  1.94000000e+03 
554.940  1.93200000e+03 
554.904  2.05500000e+03 
554.868  1.90900000e+03 
554.832  1.95900000e+03 
554.796  2.00600000e+03 
554.760  2.03900000e+03 
554.724  1.99600000e+03 
554.688  2.01600000e+03 
554.652  1.94800000e+03 
554.616  1.99000000e+03 
554.580  1.99200000e+03 
554.544  1.98800000e+03 
554.507  2.01900000e+03 
554.471  1.95900000e+03 
554.435  1.91500000e+03 
554.399  2.04200000e+03 
554.363  1.94200000e+03 
554.327  2.03000000e+03 
554.291  1.96000000e+03 
554.255  1.96300000e+03 
554.219  2.00600000e+03 
554.183  2.00400000e+03 
554.147  1.99800000e+03 
554.111  1.94200000e+03 
554.075  2.02800000e+03 
554.038  2.03700000e+03 
554.002  2.02600000e+03 
553.966  1.99200000e+03 
553.930  2.02100000e+03 
553.894  2.05300000e+03 
553.858  2.07500000e+03 
553.822  2.02100000e+03 
553.786  2.06400000e+03 
553.750  2.13700000e+03 
553.714  2.05800000e+03 
553.678  2.07600000e+03 
553.642  2.10400000e+03 
553.605  2.13700000e+03 
553.569  2.09200000e+03 
553.533  2.16800000e+03 
553.497  2.19700000e+03 
553.461  2.12400000e+03 
553.425  2.19500000e+03 
553.389  2.08100000e+03 
553.353  2.13000000e+03 
553.317  2.09700000e+03 
553.281  2.14600000e+03 
553.245  1.99300000e+03 
553.209  2.18000000e+03 
553.173  2.05100000e+03 
553.136  2.06200000e+03 
553.100  2.01000000e+03 
553.064  2.06500000e+03 
553.028  2.00300000e+03 
552.992  2.08100000e+03 
552.956  1.99700000e+03 
552.920  1.98600000e+03 
552.884  2.05400000e+03 
552.848  1.98100000e+03 
552.812  2.05100000e+03 
552.776  1.93000000e+03 
552.740  1.99100000e+03 
552.704  1.94000000e+03 
552.667  2.07600000e+03 
552.631  1.98400000e+03 
552.595  2.05000000e+03 
552.559  2.00700000e+03 
552.523  1.99600000e+03 
552.487  1.95300000e+03 
552.451  1.97900000e+03 
552.415  1.90100000e+03 
552.379  1.90500000e+03 
552.343  1.92400000e+03 
552.307  1.93800000e+03 
552.271  1.87100000e+03 
552.235  1.92700000e+03 
552.198  1.88800000e+03 
552.162  1.94200000e+03 
552.126  1.93800000e+03 
552.090  1.93600000e+03 
552.054  1.92200000e+03 
552.018  1.83100000e+03 
551.982  1.86600000e+03 
551.946  1.81500000e+03 
551.910  1.88100000e+03 
551.874  1.87200000e+03 
551.838  1.91300000e+03 
551.802  1.89900000e+03 
551.765  1.85700000e+03 
551.729  1.83700000e+03 
551.693  1.77900000e+03 
551.657  1.75900000e+03 
551.621  1.77400000e+03 
551.585  1.87100000e+03 
551.549  1.76600000e+03 
551.513  1.79600000e+03 
551.477  1.90300000e+03 
551.441  1.82400000e+03 
551.405  1.76000000e+03 
551.369  1.79700000e+03 
551.333  1.73700000e+03 
551.296  1.76300000e+03 
551.260  1.76800000e+03 
551.224  1.78600000e+03 
551.188  1.77500000e+03 
551.152  1.82200000e+03 
551.116  1.70700000e+03 
551.080  1.81200000e+03 
551.044  1.72800000e+03 
551.008  1.75000000e+03 
550.972  1.76800000e+03 
550.936  1.78100000e+03 
550.900  1.75000000e+03 
550.864  1.65800000e+03 
550.827  1.74500000e+03 
550.791  1.67900000e+03 
550.755  1.66700000e+03 
550.719  1.68500000e+03 
550.683  1.69700000e+03 
550.647  1.69300000e+03 
550.611  1.66600000e+03 
550.575  1.68900000e+03 
550.539  1.65100000e+03 
550.503  1.70800000e+03 
550.467  1.63000000e+03 
550.431  1.63300000e+03 
550.395  1.65300000e+03 
550.358  1.65100000e+03 
550.322  1.58200000e+03 
550.286  1.65500000e+03 
550.250  1.70300000e+03 
550.214  1.61600000e+03 
550.178  1.69400000e+03 
550.142  1.63800000e+03 
550.106  1.62500000e+03 
550.070  1.64200000e+03 
550.034  1.68600000e+03 
549.998  1.69300000e+03 
549.962  1.56700000e+03 
549.925  1.63100000e+03 
549.889  1.64600000e+03 
549.853  1.58600000e+03 
549.817  1.65800000e+03 
549.781  1.64700000e+03 
549.745  1.59400000e+03 
549.709  1.59800000e+03 
549.673  1.55800000e+03 
549.637  1.55500000e+03 
549.601  1.61200000e+03 
549.565  1.48600000e+03 
549.529  1.51400000e+03 
549.493  1.56300000e+03 
549.456  1.53000000e+03 
549.420  1.45000000e+03 
549.384  1.54200000e+03 
549.348  1.50800000e+03 
549.312  1.53200000e+03 
549.276  1.48600000e+03 
549.240  1.51500000e+03 
549.204  1.52100000e+03 
549.168  1.48800000e+03 
549.132  1.50800000e+03 
549.096  1.44900000e+03 
549.060  1.43700000e+03 
549.024  1.52600000e+03 
548.987  1.38500000e+03 
548.951  1.42800000e+03 
548.915  1.40500000e+03 
548.879  1.38700000e+03 
548.843  1.40500000e+03 
548.807  1.37800000e+03 
548.771  1.42900000e+03 
548.735  1.37200000e+03 
548.699  1.38000000e+03 
548.663  1.36700000e+03 
548.627  1.38800000e+03 
548.591  1.34800000e+03 
548.555  1.29500000e+03 
548.518  1.29700000e+03 
548.482  1.35400000e+03 
548.446  1.28700000e+03 
548.410  1.36300000e+03 
548.374  1.32900000e+03 
548.338  1.29700000e+03 
548.302  1.29900000e+03 
548.266  1.27700000e+03 
548.230  1.26400000e+03 
548.194  1.34400000e+03 
548.158  1.25200000e+03 
548.122  1.29100000e+03 
548.085  1.27600000e+03 
548.049  1.30800000e+03 
548.013  1.30500000e+03 
547.977  1.25500000e+03 
547.941  1.26000000e+03 
547.905  1.25800000e+03 
547.869  1.25100000e+03 
547.833  1.20700000e+03 
547.797  1.25200000e+03 
547.761  1.01400000e+03 
547.725  9.73000000e+02 
547.689  1.09800000e+03 
547.653  8.46000000e+02 
547.616  9.15000000e+02 
547.580  9.12000000e+02 
547.544  6.49000000e+02 
547.508  6.37000000e+02 
547.472  3.27000000e+02 
547.436  0.00000000e+00 
547.400  0.00000000e+00 

[ L= 1 R= 5 ]
BEcenter= 552.000 
BEwidth= -9.200  
Excitation= 1486.600
Time_p_channel= 1000.000
Size= 256
556.600  1.64900000e+03 
556.564  1.63400000e+03 
556.528  1.64400000e+03 
556.492  1.72200000e+03 
556.456  1.78300000e+03 
556.420  1.71300000e+03 
556.384  1.73700000e+03 
556.347  1.66300000e+03 
556.311  1.73800000e+03 
556.275  1.77000000e+03 
556.239  1.74100000e+03 
556.203  1.83300000e+03 
556.167  1.80800000e+03 
556.131  1.74600000e+03 
556.095  1.77500000e+03 
556.059  1.82700000e+03 
556.023  1.73700000e+03 
555.987  1.76000000e+03 
555.951  1.75300000e+03 
555.915  1.87500000e+03 
555.878  1.83000000e+03 
555.842  1.80900000e+03 
555.806  1.80400000e+03 
555.770  1.69000000e+03 
555.734  1.78800000e+03 
555.698  1.74700000e+03 
555.662  1.81300000e+03 
555.626  1.81500000e+03 
555.590  1.81500000e+03 
555.554  1.85200000e+03 
555.518  1.88800000e+03 
555.482  1.87200000e+03 
555.445  1.78000000e+03 
555.409  1.90400000e+03 
555.373  1.91900000e+03 
555.337  1.88100000e+03 
555.301  1.84400000e+03 
555.265  1.85300000e+03 
555.229  1.80900000e+03 
555.193  1.99400000e+03 
555.157  1.90900000e+03 
555.121  1.91900000e+03 
555.085  1.91200000e+03 
555.049  1.85400000e+03 
555.013  1.91800000e+03 
554.976  1.90200000e+03 
554.940  1.98800000e+03 
554.904  2.00300000e+03 
554.868  1.96200000e+03 
554.832  1.93800000e+03 
554.796  2.02400000e+03 
554.760  2.05600000e+03 
554.724  1.98200000e+03 
554.688  2.03600000e+03 
554.652  1.92500000e+03 
554.616  2.01100000e+03 
554.580  1.98800000e+03 
554.544  1.95100000e+03 
554.507  1.92700000e+03 
554.471  1.95000000e+03 
554.435  1.89600000e+03 
554.399  1.95300000e+03 
554.363  1.99400000e+03 
554.327  1.98100000e+03 
554.291  2.00000000e+03 
554.255  2.07000000e+03 
554.219  2.03500000e+03 
554.183  2.05500000e+03 
554.147  1.92900000e+03 
554.111  1.99900000e+03 
554.075  2.02400000e+03 
554.038  2.10400000e+03 
554.002  2.04200000e+03 
553.966  1.98700000e+03 
553.930  1.94600000e+03 
553.894  2.12100000e+03 
553.858  2.10300000e+03 
553.822  2.07300000e+03 
553.786  2.18300000e+03 
553.750  2.07800000e+03 
553.714  2.12800000e+03 
553.678  2.14400000e+03 
553.642  2.21700000e+03 
553.605  2.19800000e+03 
553.569  2.08000000e+03 
553.533  2.12800000e+03 
553.497  2.09200000e+03 
553.461  2.16200000e+03 
553.425  2.11700000e+03 
553.389  2.14000000e+03 
553.353  2.13900000e+03 
553.317  2.14900000e+03 
553.281  2.03100000e+03 
553.245  2.08400000e+03 
553.209  2.01500000e+03 
553.173  2.03300000e+03 
553.136  2.07200000e+03 
553.100  2.06900000e+03 
553.064  2.03000000e+03 
553.028  2.06000000e+03 
552.992  1.99600000e+03 
552.956  1.99700000e+03 
552.920  2.05100000e+03 
552.884  1.99100000e+03 
552.848  2.01500000e+03 
552.812  2.04800000e+03 
552.776  2.03700000e+03 
552.740  2.01400000e+03 
552.704  1.99500000e+03 
552.667  2.05700000e+03 
552.631  2.01400000e+03 
552.595  1.97100000e+03 
552.559  1.96000000e+03 
552.523  1.95600000e+03 
552.487  2.00700000e+03 
552.451  1.94000000e+03 
552.415  1.97700000e+03 
552.379  1.88300000e+03 
552.343  1.95200000e+03 
552.307  1.87500000e+03 
552.271  1.95200000e+03 
552.235  1.92400000e+03 
552.198  1.88300000e+03 
552.162  1.89900000e+03 
552.126  1.98200000e+03 
552.090  1.92800000e+03 
552.054  1.90800000e+03 
552.018  1.89400000e+03 
551.982  1.92100000e+03 
551.946  1.86800000e+03 
551.910  1.79800000e+03 
551.874  1.90300000e+03 
551.838  1.82100000e+03 
551.802  1.83000000e+03 
551.765  1.91400000e+03 
551.729  1.88100000e+03 
551.693  1.84500000e+03 
551.657  1.83700000e+03 
551.621  1.82700000e+03 
551.585  1.82400000e+03 
551.549  1.79100000e+03 
551.513  1.77600000e+03 
551.477  1.82000000e+03 
551.441  1.73300000e+03 
551.405  1.84000000e+03 
551.369  1.87300000e+03 
551.333  1.79000000e+03 
551.296  1.78400000e+03 
551.260  1.85500000e+03 
551.224  1.74900000e+03 
551.188  1.78300000e+03 
551.152  1.80700000e+03 
551.116  1.77900000e+03 
551.080  1.66100000e+03 
551.044  1.68800000e+03 
551.008  1.71800000e+03 
550.972  1.68000000e+03 
550.936  1.74900000e+03 
550.900  1.75300000e+03 
550.864  1.69500000e+03 
550.827  1.67700000e+03 
550.791  1.70300000e+03 
550.755  1.63700000e+03 
550.719  1.68200000e+03 
550.683  1.70100000e+03 
550.647  1.65600000e+03 
550.611  1.69200000e+03 
550.575  1.70900000e+03 
550.539  1.67600000e+03 
550.503  1.66500000e+03 
550.467  1.62800000e+03 
550.431  1.65500000e+03 
550.395  1.67400000e+03 
550.358  1.68400000e+03 
550.322  1.60000000e+03 
550.286  1.60100000e+03 
550.250  1.72000000e+03 
550.214  1.66600000e+03 
550.178  1.65700000e+03 
550.142  1.71100000e+03 
550.106  1.67400000e+03 
550.070  1.66900000e+03 
550.034  1.64800000e+03 
549.998  1.66900000e+03 
549.962  1.54900000e+03 
549.925  1.61300000e+03 
549.889  1.63400000e+03 
549.853  1.64800000e+03 
549.817  1.55200000e+03 
549.781  1.57500000e+03 
549.745  1.64900000e+03 
549.709  1.61500000e+03 
549.673  1.55700000e+03 
549.637  1.59400000e+03 
549.601  1.51500000e+03 
549.565  1.50700000e+03 
549.529  1.54100000e+03 
549.493  1.47600000e+03 
549.456  1.47400000e+03 
549.420  1.50600000e+03 
549.384  1.57900000e+03 
549.348  1.46900000e+03 
549.312  1.55100000e+03 
549.276  1.48600000e+03 
549.240  1.55500000e+03 
549.204  1.48600000e+03 
549.168  1.46800000e+03 
549.132  1.45200000e+03 
549.096  1.47800000e+03 
549.060  1.42000000e+03 
549.024  1.45400000e+03 
548.987  1.42800000e+03 
548.951  1.43400000e+03 
548.915  1.40200000e+03 
548.879  1.46900000e+03 
548.843  1.34000000e+03 
548.807  1.39300000e+03 
548.771  1.35600000e+03 
548.735  1.40200000e+03 
548.699  1.42000000e+03 
548.663  1.37700000e+03 
548.627  1.36300000e+03 
548.591  1.31400000e+03 
548.555  1.34400000e+03 
548.518  1.34100000e+03 
548.482  1.28900000e+03 
548.446  1.33300000e+03 
548.410  1.32600000e+03 
548.374  1.28800000e+03 
548.338  1.33600000e+03 
548.302  1.22300000e+03 
548.266  1.33100000e+03 
548.230  1.26900000e+03 
548.194  1.38100000e+03 
548.158  1.28200000e+03 
548.122  1.26100000e+03 
548.085  1.23500000e+03 
548.049  1.31900000e+03 
548.013  1.22600000e+03 
547.977  1.27400000e+03 
547.941  1.32300000e+03 
547.905  1.21900000e+03 
547.869  1.28800000e+03 
547.833  1.15100000e+03 
547.797  1.24100000e+03 
547.761  1.02300000e+03 
547.725  9.49000000e+02 
547.689  1.14400000e+03 
547.653  8.54000000e+02 
547.616  9.02000000e+02 
547.580  9.21000000e+02 
547.544  6.84000000e+02 
547.508  6.81000000e+02 
547.472  3.24000000e+02 
547.436  0.00000000e+00 
547.400  0.00000000e+00 

[ L= 1 R= 6 ]
BEcenter= 552.000 
BEwidth= -9.200  
Excitation= 1486.600
Time_p_channel= 1000.000
Size= 256
556.600  1.59100000e+03 
556.564  1.76500000e+03 
556.528  1.71800000e+03 
556.492  1.72300000e+03 
556.456  1.72400000e+03 
556.420  1.68200000e+03 
556.384  1.69400000e+03 
556.347  1.67900000e+03 
556.311  1.72500000e+03 
556.275  1.82900000e+03 
556.239  1.80100000e+03 
556.203  1.72700000e+03 
556.167  1.77500000e+03 
556.131  1.74800000e+03 
556.095  1.78100000e+03 
556.059  1.75700000e+03 
556.023  1.75400000e+03 
555.987  1.79200000e+03 
555.951  1.76600000e+03 
555.915  1.81300000e+03 
555.878  1.85500000e+03 
555.842  1.80200000e+03 
555.806  1.77200000e+03 
555.770  1.78300000e+03 
555.734  1.79400000e+03 
555.698  1.85900000e+03 
555.662  1.83100000e+03 
555.626  1.77200000e+03 
555.590  1.78300000e+03 
555.554  1.83300000e+03 
555.518  1.91800000e+03 
555.482  1.84200000e+03 
555.445  1.86600000e+03 
555.409  1.88400000e+03 
555.373  1.93900000e+03 
555.337  1.79800000e+03 
555.301  1.87000000e+03 
555.265  1.90300000e+03 
555.229  1.92800000e+03 
555.193  1.92000000e+03 
555.157  1.83200000e+03 
555.121  1.87800000e+03 
555.085  1.83100000e+03 
555.049  1.95500000e+03 
555.013  1.96600000e+03 
554.976  1.85600000e+03 
554.940  1.98000000e+03 
554.904  1.92000000e+03 
554.868  1.88200000e+03 
554.832  1.99400000e+03 
554.796  1.96100000e+03 
554.760  2.01900000e+03 
554.724  1.95600000e+03 
554.688  2.03300000e+03 
554.652  2.03400000e+03 
554.616  1.90300000e+03 
554.580  1.98600000e+03 
554.544  1.90500000e+03 
554.507  1.98500000e+03 
554.471  1.95000000e+03 
554.435  2.02500000e+03 
554.399  1.92000000e+03 
554.363  1.99000000e+03 
554.327  1.94200000e+03 
554.291  1.99100000e+03 
554.255  2.01000000e+03 
554.219  2.05100000e+03 
554.183  2.01100000e+03 
554.147  1.99300000e+03 
554.111  1.97700000e+03 
554.075  2.04700000e+03 
554.038  2.00100000e+03 
554.002  2.08800000e+03 
553.966  2.10000000e+03 
553.930  2.06100000e+03 
553.894  2.06000000e+03 
553.858  2.05400000e+03 
553.822  2.03900000e+03 
553.786  2.05700000e+03 
553.750  2.13200000e+03 
553.714  2.10200000e+03 
553.678  2.12500000e+03 
553.642  2.10400000e+03 
553.605  2.18600000e+03 
553.569  2.11500000e+03 
553.533  2.14300000e+03 
553.497  2.08900000e+03 
553.461  2.19200000e+03 
553.425  2.08500000e+03 
553.389  2.12000000e+03 
553.353  2.08900000e+03 
553.317  1.99700000e+03 
553.281  1.92200000e+03 
553.245  2.09300000e+03 
553.209  2.05500000e+03 
553.173  2.08800000e+03 
553.136  2.02000000e+03 
553.100  2.00700000e+03 
553.064  2.07400000e+03 
553.028  2.04400000e+03 
552.992  2.02300000e+03 
552.956  2.04000000e+03 
552.920  2.07700000e+03 
552.884  2.02600000e+03 
552.848  1.99900000e+03 
552.812  2.04600000e+03 
552.776  1.97500000e+03 
552.740  2.04900000e+03 
552.704  1.97100000e+03 
552.667  2.02600000e+03 
552.631  1.96200000e+03 
552.595  1.95300000e+03 
552.559  2.00200000e+03 
552.523  1.92100000e+03 
552.487  1.89000000e+03 
552.451  1.92300000e+03 
552.415  1.93300000e+03 
552.379  1.90200000e+03 
552.343  1.96100000e+03 
552.307  1.89700000e+03 
552.271  1.91100000e+03 
552.235  1.93600000e+03 
552.198  1.96200000e+03 
552.162  1.88900000e+03 
552.126  1.96100000e+03 
552.090  1.90800000e+03 
552.054  1.88100000e+03 
552.018  1.85700000e+03 
551.982  1.91900000e+03 
551.946  1.74900000e+03 
551.910  1.82500000e+03 
551.874  1.82800000e+03 
551.838  1.85100000e+03 
551.802  1.84300000e+03 
551.765  1.86000000e+03 
551.729  1.79600000e+03 
551.693  1.91600000e+03 
551.657  1.88600000e+03 
551.621  1.84900000e+03 
551.585  1.79500000e+03 
551.549  1.82200000e+03 
551.513  1.82600000e+03 
551.477  1.75000000e+03 
551.441  1.81000000e+03 
551.405  1.81300000e+03 
551.369  1.84200000e+03 
551.333  1.76600000e+03 
551.296  1.76800000e+03 
551.260  1.71000000e+03 
551.224  1.71400000e+03 
551.188  1.77800000e+03 
551.152  1.79000000e+03 
551.116  1.74000000e+03 
551.080  1.74500000e+03 
551.044  1.81200000e+03 
551.008  1.69900000e+03 
550.972  1.70200000e+03 
550.936  1.70500000e+03 
550.900  1.76700000e+03 
550.864  1.68100000e+03 
550.827  1.71300000e+03 
550.791  1.71800000e+03 
550.755  1.69800000e+03 
550.719  1.69600000e+03 
550.683  1.68800000e+03 
550.647  1.72100000e+03 
550.611  1.70200000e+03 
550.575  1.69700000e+03 
550.539  1.60300000e+03 
550.503  1.65600000e+03 
550.467  1.69000000e+03 
550.431  1.62700000e+03 
550.395  1.67000000e+03 
550.358  1.68600000e+03 
550.322  1.71000000e+03 
550.286  1.68900000e+03 
550.250  1.67400000e+03 
550.214  1.64600000e+03 
550.178  1.67200000e+03 
550.142  1.72800000e+03 
550.106  1.60800000e+03 
550.070  1.64100000e+03 
550.034  1.67600000e+03 
549.998  1.69500000e+03 
549.962  1.69100000e+03 
549.925  1.70200000e+03 
549.889  1.60700000e+03 
549.853  1.63600000e+03 
549.817  1.67400000e+03 
549.781  1.60600000e+03 
549.745  1.51900000e+03 
549.709  1.54900000e+03 
549.673  1.56800000e+03 
549.637  1.54800000e+03 
549.601  1.55000000e+03 
549.565  1.59800000e+03 
549.529  1.60300000e+03 
549.493  1.53300000e+03 
549.456  1.51900000e+03 
549.420  1.49500000e+03 
549.384  1.47800000e+03 
549.348  1.57700000e+03 
549.312  1.48500000e+03 
549.276  1.49600000e+03 
549.240  1.50600000e+03 
549.204  1.49400000e+03 
549.168  1.45700000e+03 
549.132  1.50300000e+03 
549.096  1.45300000e+03 
549.060  1.44900000e+03 
549.024  1.40100000e+03 
548.987  1.41600000e+03 
548.951  1.39200000e+03 
548.915  1.43900000e+03 
548.879  1.37700000e+03 
548.843  1.39000000e+03 
548.807  1.35200000e+03 
548.771  1.39800000e+03 
548.735  1.41900000e+03 
548.699  1.33800000e+03 
548.663  1.37600000e+03 
548.627  1.43000000e+03 
548.591  1.34900000e+03 
548.555  1.29800000e+03 
548.518  1.35100000e+03 
548.482  1.32100000e+03 
548.446  1.30300000e+03 
548.410  1.32500000e+03 
548.374  1.29100000e+03 
548.338  1.34400000e+03 
548.302  1.32200000e+03 
548.266  1.38200000e+03 
548.230  1.23400000e+03 
548.194  1.31500000e+03 
548.158  1.28700000e+03 
548.122  1.22300000e+03 
548.085  1.24500000e+03 
548.049  1.27100000e+03 
548.013  1.23800000e+03 
547.977  1.30700000e+03 
547.941  1.28000000e+03 
547.905  1.31900000e+03 
547.869  1.16100000e+03 
547.833  1.12700000e+03 
547.797  1.29200000e+03 
547.761  1.07200000e+03 
547.725  9.82000000e+02 
547.689  1.02400000e+03 
547.653  8.29000000e+02 
547.616  9.69000000e+02 
547.580  9.06000000e+02 
547.544  6.89000000e+02 
547.508  6.24000000e+02 
547.472  3.20000000e+02 
547.436  0.00000000e+00 
547.400  0.00000000e+00 

[ L= 1 R= 7 ]
BEcenter= 552.000 
BEwidth= -9.200  
Excitation= 1486.600
Time_p_channel= 1000.000
Size= 256
556.600  1.67500000e+03 
556.564  1.62900000e+03 
556.528  1.71700000e+03 
556.492  1.71400000e+03 
556.456  1.80100000e+03 
556.420  1.76100000e+03 
556.384  1.72500000e+03 
556.347  1.77900000e+03 
556.311  1.79200000e+03 
556.275  1.79000000e+03 
556.239  1.68900000e+03 
556.203  1.80900000e+03 
556.167  1.77200000e+03 
556.131  1.82200000e+03 
556.095  1.72600000e+03 
556.059  1.77300000e+03 
556.023  1.79800000e+03 
555.987  1.79300000e+03 
555.951  1.74100000e+03 
555.915  1.84500000e+03 
555.878  1.72700000e+03 
555.842  1.77700000e+03 
555.806  1.87200000e+03 
555.770  1.81500000e+03 
555.734  1.68600000e+03 
555.698  1.76000000e+03 
555.662  1.79800000e+03 
555.626  1.89500000e+03 
555.590  1.83000000e+03 
555.554  1.81900000e+03 
555.518  1.87400000e+03 
555.482  1.87600000e+03 
555.445  1.91800000e+03 
555.409  1.86500000e+03 
555.373  1.79900000e+03 
555.337  1.92300000e+03 
555.301  1.91600000e+03 
555.265  1.90900000e+03 
555.229  1.95700000e+03 
555.193  1.87100000e+03 
555.157  1.90700000e+03 
555.121  1.93300000e+03 
555.085  1.93300000e+03 
555.049  1.89500000e+03 
555.013  1.95800000e+03 
554.976  1.88400000e+03 
554.940  1.91700000e+03 
554.904  1.99200000e+03 
554.868  2.03300000e+03 
554.832  2.01200000e+03 
554.796  1.95300000e+03 
554.760  2.05200000e+03 
554.724  2.06400000e+03 
554.688  2.03400000e+03 
554.652  1.97200000e+03 
554.616  1.98000000e+03 
554.580  1.93900000e+03 
554.544  1.99100000e+03 
554.507  2.04100000e+03 
554.471  2.02900000e+03 
554.435  2.00600000e+03 
554.399  1.96400000e+03 
554.363  2.01700000e+03 
554.327  1.98200000e+03 
554.291  1.95600000e+03 
554.255  1.98300000e+03 
554.219  1.89500000e+03 
554.183  2.00900000e+03 
554.147  2.00300000e+03 
554.111  1.98700000e+03 
554.075  1.93100000e+03 
554.038  1.95100000e+03 
554.002  2.07000000e+03 
553.966  2.10300000e+03 
553.930  2.12100000e+03 
553.894  2.03700000e+03 
553.858  1.99900000e+03 
553.822  2.14700000e+03 
553.786  2.03500000e+03 
553.750  2.06900000e+03 
553.714  2.06200000e+03 
553.678  2.16400000e+03 
553.642  2.11200000e+03 
553.605  2.10400000e+03 
553.569  2.07600000e+03 
553.533  2.11100000e+03 
553.497  2.10200000e+03 
553.461  2.02200000e+03 
553.425  2.18900000e+03 
553.389  2.15600000e+03 
553.353  2.05800000e+03 
553.317  2.12300000e+03 
553.281  2.07500000e+03 
553.245  2.07300000e+03 
553.209  1.93600000e+03 
553.173  2.06500000e+03 
553.136  2.02500000e+03 
553.100  2.03000000e+03 
553.064  2.03500000e+03 
553.028  2.01600000e+03 
552.992  2.07100000e+03 
552.956  2.09500000e+03 
552.920  1.96200000e+03 
552.884  2.01700000e+03 
552.848  2.08000000e+03 
552.812  2.07200000e+03 
552.776  1.94500000e+03 
552.740  1.98200000e+03 
552.704  1.90100000e+03 
552.667  1.96900000e+03 
552.631  2.02600000e+03 
552.595  1.94600000e+03 
552.559  1.95600000e+03 
552.523  1.90800000e+03 
552.487  1.89700000e+03 
552.451  1.93400000e+03 
552.415  1.88500000e+03 
552.379  1.90800000e+03 
552.343  1.91500000e+03 
552.307  1.91900000e+03 
552.271  1.92600000e+03 
552.235  1.95300000e+03 
552.198  1.88100000e+03 
552.162  1.95700000e+03 
552.126  1.90000000e+03 
552.090  1.92900000e+03 
552.054  1.88500000e+03 
552.018  1.85600000e+03 
551.982  1.88300000e+03 
551.946  1.91300000e+03 
551.910  1.83900000e+03 
551.874  1.89400000e+03 
551.838  1.83400000e+03 
551.802  1.80100000e+03 
551.765  1.81100000e+03 
551.729  1.81400000e+03 
551.693  1.84600000e+03 
551.657  1.86000000e+03 
551.621  1.85000000e+03 
551.585  1.79700000e+03 
551.549  1.86000000e+03 
551.513  1.81300000e+03 
551.477  1.83700000e+03 
551.441  1.80800000e+03 
551.405  1.80900000e+03 
551.369  1.86200000e+03 
551.333  1.79800000e+03 
551.296  1.81100000e+03 
551.260  1.72500000e+03 
551.224  1.67100000e+03 
551.188  1.73100000e+03 
551.152  1.74600000e+03 
551.116  1.74500000e+03 
551.080  1.72500000e+03 
551.044  1.75600000e+03 
551.008  1.73100000e+03 
550.972  1.71800000e+03 
550.936  1.69400000e+03 
550.900  1.68200000e+03 
550.864  1.62200000e+03 
550.827  1.68500000e+03 
550.791  1.70000000e+03 
550.755  1.60500000e+03 
550.719  1.68500000e+03 
550.683  1.65800000e+03 
550.647  1.65300000e+03 
550.611  1.69400000e+03 
550.575  1.63900000e+03 
550.539  1.75400000e+03 
550.503  1.59800000e+03 
550.467  1.58000000e+03 
550.431  1.65300000e+03 
550.395  1.63400000e+03 
550.358  1.61700000e+03 
550.322  1.63200000e+03 
550.286  1.65300000e+03 
550.250  1.60700000e+03 
550.214  1.66600000e+03 
550.178  1.66200000e+03 
550.142  1.63800000e+03 
550.106  1.65000000e+03 
550.070  1.66400000e+03 
550.034  1.57400000e+03 
549.998  1.64300000e+03 
549.962  1.55700000e+03 
549.925  1.58600000e+03 
549.889  1.60400000e+03 
549.853  1.56500000e+03 
549.817  1.59100000e+03 
549.781  1.53700000e+03 
549.745  1.53800000e+03 
549.709  1.59300000e+03 
549.673  1.54100000e+03 
549.637  1.49700000e+03 
549.601  1.66600000e+03 
549.565  1.56500000e+03 
549.529  1.54000000e+03 
549.493  1.55300000e+03 
549.456  1.49900000e+03 
549.420  1.57100000e+03 
549.384  1.49000000e+03 
549.348  1.47900000e+03 
549.312  1.46100000e+03 
549.276  1.45400000e+03 
549.240  1.58800000e+03 
549.204  1.52100000e+03 
549.168  1.46200000e+03 
549.132  1.46100000e+03 
549.096  1.42400000e+03 
549.060  1.39200000e+03 
549.024  1.45200000e+03 
548.987  1.44300000e+03 
548.951  1.43800000e+03 
548.915  1.40000000e+03 
548.879  1.41400000e+03 
548.843  1.40500000e+03 
548.807  1.34200000e+03 
548.771  1.34600000e+03 
548.735  1.32800000e+03 
548.699  1.32400000e+03 
548.663  1.33000000e+03 
548.627  1.38600000e+03 
548.591  1.41600000e+03 
548.555  1.29900000e+03 
548.518  1.30800000e+03 
548.482  1.32900000e+03 
548.446  1.28600000e+03 
548.410  1.27700000e+03 
548.374  1.27000000e+03 
548.338  1.34000000e+03 
548.302  1.39200000e+03 
548.266  1.30300000e+03 
548.230  1.30800000e+03 
548.194  1.26500000e+03 
548.158  1.26900000e+03 
548.122  1.29700000e+03 
548.085  1.26800000e+03 
548.049  1.23800000e+03 
548.013  1.28600000e+03 
547.977  1.23000000e+03 
547.941  1.24300000e+03 
547.905  1.26200000e+03 
547.869  1.16600000e+03 
547.833  1.16700000e+03 
547.797  1.22200000e+03 
547.761  9.68000000e+02 
547.725  1.00400000e+03 
547.689  1.06800000e+03 
547.653  8.91000000e+02 
547.616  9.51000000e+02 
547.580  9.21000000e+02 
547.544  6.97000000e+02 
547.508  5.97000000e+02 
547.472  3.44000000e+02 
547.436  0.00000000e+00 
547.400  0.00000000e+00 

[ L= 1 R= 8 ]
BEcenter= 552.000 
BEwidth= -9.200  
Excitation= 1486.600
Time_p_channel= 1000.000
Size= 256
556.600  1.67000000e+03 
556.564  1.68900000e+03 
556.528  1.75800000e+03 
556.492  1.73500000e+03 
556.456  1.77300000e+03 
556.420  1.68300000e+03 
556.384  1.69400000e+03 
556.347  1.77100000e+03 
556.311  1.82500000e+03 
556.275  1.73400000e+03 
556.239  1.75400000e+03 
556.203  1.78000000e+03 
556.167  1.80300000e+03 
556.131  1.74400000e+03 
556.095  1.73500000e+03 
556.059  1.79700000e+03 
556.023  1.80200000e+03 
555.987  1.69800000e+03 
555.951  1.78300000e+03 
555.915  1.80600000e+03 
555.878  1.76500000e+03 
555.842  1.87200000e+03 
555.806  1.88200000e+03 
555.770  1.82200000e+03 
555.734  1.81600000e+03 
555.698  1.78500000e+03 
555.662  1.88800000e+03 
555.626  1.80600000e+03 
555.590  1.89100000e+03 
555.554  1.86700000e+03 
555.518  1.81700000e+03 
555.482  1.83900000e+03 
555.445  1.80700000e+03 
555.409  1.79300000e+03 
555.373  1.81400000e+03 
555.337  1.91900000e+03 
555.301  1.80700000e+03 
555.265  1.92900000e+03 
555.229  1.93700000e+03 
555.193  1.93500000e+03 
555.157  1.88300000e+03 
555.121  1.91600000e+03 
555.085  1.93000000e+03 
555.049  1.90400000e+03 
555.013  1.91900000e+03 
554.976  1.91200000e+03 
554.940  1.97400000e+03 
554.904  1.91900000e+03 
554.868  1.90000000e+03 
554.832  1.98600000e+03 
554.796  1.95900000e+03 
554.760  2.05900000e+03 
554.724  1.93500000e+03 
554.688  1.97300000e+03 
554.652  1.95100000e+03 
554.616  2.07100000e+03 
554.580  2.03300000e+03 
554.544  1.95600000e+03 
554.507  2.02900000e+03 
554.471  2.01900000e+03 
554.435  2.02800000e+03 
554.399  2.00300000e+03 
554.363  1.93100000e+03 
554.327  2.00300000e+03 
554.291  1.97900000e+03 
554.255  2.02600000e+03 
554.219  2.00500000e+03 
554.183  1.96100000e+03 
554.147  2.00000000e+03 
554.111  2.00900000e+03 
554.075  1.99300000e+03 
554.038  2.02700000e+03 
554.002  2.11000000e+03 
553.966  1.97600000e+03 
553.930  2.04100000e+03 
553.894  2.02500000e+03 
553.858  2.08800000e+03 
553.822  2.07800000e+03 
553.786  2.04000000e+03 
553.750  2.03800000e+03 
553.714  2.09800000e+03 
553.678  2.09100000e+03 
553.642  2.05400000e+03 
553.605  2.17600000e+03 
553.569  2.13300000e+03 
553.533  2.17000000e+03 
553.497  2.16000000e+03 
553.461  2.14200000e+03 
553.425  2.13700000e+03 
553.389  2.05100000e+03 
553.353  2.11200000e+03 
553.317  2.12100000e+03 
553.281  2.07900000e+03 
553.245  2.11600000e+03 
553.209  2.06000000e+03 
553.173  2.11600000e+03 
553.136  2.06700000e+03 
553.100  2.09200000e+03 
553.064  2.02800000e+03 
553.028  2.01900000e+03 
552.992  1.97800000e+03 
552.956  1.97700000e+03 
552.920  1.95200000e+03 
552.884  2.08400000e+03 
552.848  1.96000000e+03 
552.812  2.04400000e+03 
552.776  1.93400000e+03 
552.740  1.95800000e+03 
552.704  2.06300000e+03 
552.667  2.08000000e+03 
552.631  1.99900000e+03 
552.595  1.97600000e+03 
552.559  1.97300000e+03 
552.523  1.86100000e+03 
552.487  1.97800000e+03 
552.451  1.90200000e+03 
552.415  1.96300000e+03 
552.379  1.92600000e+03 
552.343  1.97600000e+03 
552.307  1.89900000e+03 
552.271  1.90400000e+03 
552.235  2.00200000e+03 
552.198  1.78900000e+03 
552.162  1.95600000e+03 
552.126  1.89100000e+03 
552.090  1.82200000e+03 
552.054  1.91000000e+03 
552.018  1.80600000e+03 
551.982  1.87500000e+03 
551.946  1.83100000e+03 
551.910  1.76000000e+03 
551.874  1.82000000e+03 
551.838  1.80500000e+03 
551.802  1.78800000e+03 
551.765  1.91300000e+03 
551.729  1.90600000e+03 
551.693  1.79200000e+03 
551.657  1.77000000e+03 
551.621  1.91000000e+03 
551.585  1.78900000e+03 
551.549  1.76500000e+03 
551.513  1.86500000e+03 
551.477  1.83200000e+03 
551.441  1.91900000e+03 
551.405  1.88500000e+03 
551.369  1.80900000e+03 
551.333  1.85000000e+03 
551.296  1.89100000e+03 
551.260  1.88500000e+03 
551.224  1.74800000e+03 
551.188  1.77000000e+03 
551.152  1.73600000e+03 
551.116  1.82200000e+03 
551.080  1.70900000e+03 
551.044  1.70400000e+03 
551.008  1.74600000e+03 
550.972  1.69000000e+03 
550.936  1.74600000e+03 
550.900  1.68200000e+03 
550.864  1.74500000e+03 
550.827  1.72700000e+03 
550.791  1.80000000e+03 
550.755  1.72700000e+03 
550.719  1.73900000e+03 
550.683  1.77500000e+03 
550.647  1.67600000e+03 
550.611  1.70800000e+03 
550.575  1.58100000e+03 
550.539  1.69900000e+03 
550.503  1.65100000e+03 
550.467  1.71300000e+03 
550.431  1.60400000e+03 
550.395  1.59600000e+03 
550.358  1.58900000e+03 
550.322  1.62400000e+03 
550.286  1.61700000e+03 
550.250  1.65200000e+03 
550.214  1.59700000e+03 
550.178  1.65800000e+03 
550.142  1.60400000e+03 
550.106  1.68600000e+03 
550.070  1.57100000e+03 
550.034  1.71000000e+03 
549.998  1.63400000e+03 
549.962  1.70700000e+03 
549.925  1.61200000e+03 
549.889  1.69200000e+03 
549.853  1.58900000e+03 
549.817  1.50800000e+03 
549.781  1.61300000e+03 
549.745  1.59100000e+03 
549.709  1.59500000e+03 
549.673  1.60100000e+03 
549.637  1.54300000e+03 
549.601  1.60000000e+03 
549.565  1.52800000e+03 
549.529  1.46700000e+03 
549.493  1.54200000e+03 
549.456  1.59100000e+03 
549.420  1.54200000e+03 
549.384  1.52200000e+03 
549.348  1.49100000e+03 
549.312  1.52600000e+03 
549.276  1.49800000e+03 
549.240  1.45900000e+03 
549.204  1.50400000e+03 
549.168  1.51400000e+03 
549.132  1.51000000e+03 
549.096  1.48400000e+03 
549.060  1.40600000e+03 
549.024  1.37500000e+03 
548.987  1.45600000e+03 
548.951  1.40600000e+03 
548.915  1.42200000e+03 
548.879  1.39400000e+03 
548.843  1.38500000e+03 
548.807  1.40100000e+03 
548.771  1.39200000e+03 
548.735  1.37600000e+03 
548.699  1.36300000e+03 
548.663  1.41600000e+03 
548.627  1.37000000e+03 
548.591  1.35800000e+03 
548.555  1.26100000e+03 
548.518  1.25000000e+03 
548.482  1.34100000e+03 
548.446  1.32600000e+03 
548.410  1.33500000e+03 
548.374  1.37800000e+03 
548.338  1.32600000e+03 
548.302  1.32500000e+03 
548.266  1.27900000e+03 
548.230  1.28600000e+03 
548.194  1.32400000e+03 
548.158  1.26400000e+03 
548.122  1.36000000e+03 
548.085  1.28900000e+03 
548.049  1.23500000e+03 
548.013  1.22800000e+03 
547.977  1.29000000e+03 
547.941  1.30100000e+03 
547.905  1.29000000e+03 
547.869  1.27100000e+03 
547.833  1.10800000e+03 
547.797  1.25100000e+03 
547.761  9.67000000e+02 
547.725  1.05600000e+03 
547.689  1.14000000e+03 
547.653  7.98000000e+02 
547.616  9.44000000e+02 
547.580  9.06000000e+02 
547.544  6.45000000e+02 
547.508  6.76000000e+02 
547.472  3.31000000e+02 
547.436  0.00000000e+00 
547.400  0.00000000e+00 

[ L= 1 R= 9 ]
BEcenter= 552.000 
BEwidth= -9.200  
Excitation= 1486.600
Time_p_channel= 1000.000
Size= 256
556.600  1.69700000e+03 
556.564  1.68100000e+03 
556.528  1.62600000e+03 
556.492  1.83700000e+03 
556.456  1.67300000e+03 
556.420  1.75600000e+03 
556.384  1.73700000e+03 
556.347  1.75400000e+03 
556.311  1.82600000e+03 
556.275  1.78600000e+03 
556.239  1.80300000e+03 
556.203  1.83500000e+03 
556.167  1.72200000e+03 
556.131  1.85100000e+03 
556.095  1.75100000e+03 
556.059  1.71800000e+03 
556.023  1.76800000e+03 
555.987  1.74600000e+03 
555.951  1.77000000e+03 
555.915  1.75400000e+03 
555.878  1.82800000e+03 
555.842  1.82700000e+03 
555.806  1.77200000e+03 
555.770  1.80000000e+03 
555.734  1.72200000e+03 
555.698  1.83300000e+03 
555.662  1.86300000e+03 
555.626  1.75700000e+03 
555.590  1.82000000e+03 
555.554  1.87900000e+03 
555.518  1.83500000e+03 
555.482  1.92800000e+03 
555.445  1.81900000e+03 
555.409  1.91300000e+03 
555.373  1.90200000e+03 
555.337  1.87000000e+03 
555.301  1.90700000e+03 
555.265  1.93000000e+03 
555.229  1.94600000e+03 
555.193  1.88600000e+03 
555.157  1.93000000e+03 
555.121  1.91000000e+03 
555.085  1.94400000e+03 
555.049  1.92600000e+03 
555.013  1.92500000e+03 
554.976  1.92300000e+03 
554.940  1.96600000e+03 
554.904  1.96800000e+03 
554.868  1.92800000e+03 
554.832  2.03100000e+03 
554.796  2.02300000e+03 
554.760  2.00100000e+03 
554.724  2.01000000e+03 
554.688  2.02100000e+03 
554.652  1.94700000e+03 
554.616  2.00200000e+03 
554.580  1.93100000e+03 
554.544  2.02500000e+03 
554.507  2.00500000e+03 
554.471  1.97300000e+03 
554.435  2.10700000e+03 
554.399  1.99000000e+03 
554.363  1.91500000e+03 
554.327  1.99700000e+03 
554.291  1.92700000e+03 
554.255  1.94500000e+03 
554.219  2.04900000e+03 
554.183  2.00700000e+03 
554.147  2.03100000e+03 
554.111  2.00000000e+03 
554.075  2.10300000e+03 
554.038  2.06900000e+03 
554.002  2.00300000e+03 
553.966  2.05400000e+03 
553.930  1.98900000e+03 
553.894  2.11900000e+03 
553.858  2.10500000e+03 
553.822  2.06100000e+03 
553.786  2.06100000e+03 
553.750  2.09800000e+03 
553.714  2.19200000e+03 
553.678  2.19900000e+03 
553.642  2.14300000e+03 
553.605  2.15100000e+03 
553.569  2.08400000e+03 
553.533  2.12600000e+03 
553.497  2.13000000e+03 
553.461  2.06500000e+03 
553.425  2.15400000e+03 
553.389  2.16400000e+03 
553.353  2.05600000e+03 
553.317  2.08000000e+03 
553.281  2.09900000e+03 
553.245  2.07500000e+03 
553.209  2.04900000e+03 
553.173  2.06600000e+03 
553.136  2.11700000e+03 
553.100  2.03100000e+03 
553.064  2.04500000e+03 
553.028  2.08600000e+03 
552.992  2.00700000e+03 
552.956  2.10100000e+03 
552.920  2.09400000e+03 
552.884  2.09100000e+03 
552.848  1.99800000e+03 
552.812  2.02600000e+03 
552.776  2.04100000e+03 
552.740  1.93900000e+03 
552.704  1.91700000e+03 
552.667  2.00200000e+03 
552.631  2.02400000e+03 
552.595  1.95400000e+03 
552.559  1.99800000e+03 
552.523  1.87300000e+03 
552.487  2.00800000e+03 
552.451  1.94900000e+03 
552.415  1.92600000e+03 
552.379  1.95000000e+03 
552.343  1.88900000e+03 
552.307  1.90200000e+03 
552.271  2.02400000e+03 
552.235  1.92700000e+03 
552.198  1.98300000e+03 
552.162  1.91600000e+03 
552.126  1.94900000e+03 
552.090  1.94800000e+03 
552.054  1.88600000e+03 
552.018  1.88100000e+03 
551.982  1.80300000e+03 
551.946  1.93900000e+03 
551.910  1.86700000e+03 
551.874  1.84900000e+03 
551.838  1.85900000e+03 
551.802  1.81400000e+03 
551.765  1.77200000e+03 
551.729  1.87400000e+03 
551.693  1.88700000e+03 
551.657  1.83300000e+03 
551.621  1.91400000e+03 
551.585  1.88500000e+03 
551.549  1.82200000e+03 
551.513  1.81700000e+03 
551.477  1.81200000e+03 
551.441  1.81900000e+03 
551.405  1.77100000e+03 
551.369  1.78900000e+03 
551.333  1.78200000e+03 
551.296  1.77200000e+03 
551.260  1.80100000e+03 
551.224  1.81700000e+03 
551.188  1.77900000e+03 
551.152  1.79300000e+03 
551.116  1.76300000e+03 
551.080  1.75700000e+03 
551.044  1.72200000e+03 
551.008  1.78400000e+03 
550.972  1.73800000e+03 
550.936  1.69500000e+03 
550.900  1.68700000e+03 
550.864  1.85100000e+03 
550.827  1.65100000e+03 
550.791  1.70200000e+03 
550.755  1.77200000e+03 
550.719  1.65600000e+03 
550.683  1.65900000e+03 
550.647  1.69900000e+03 
550.611  1.61800000e+03 
550.575  1.60700000e+03 
550.539  1.61300000e+03 
550.503  1.63400000e+03 
550.467  1.59600000e+03 
550.431  1.60400000e+03 
550.395  1.64200000e+03 
550.358  1.68400000e+03 
550.322  1.68400000e+03 
550.286  1.64200000e+03 
550.250  1.66000000e+03 
550.214  1.70700000e+03 
550.178  1.76600000e+03 
550.142  1.56500000e+03 
550.106  1.58600000e+03 
550.070  1.68100000e+03 
550.034  1.60400000e+03 
549.998  1.67300000e+03 
549.962  1.62400000e+03 
549.925  1.69000000e+03 
549.889  1.58500000e+03 
549.853  1.56600000e+03 
549.817  1.50600000e+03 
549.781  1.62500000e+03 
549.745  1.57900000e+03 
549.709  1.52400000e+03 
549.673  1.55900000e+03 
549.637  1.56700000e+03 
549.601  1.53200000e+03 
549.565  1.61800000e+03 
549.529  1.54800000e+03 
549.493  1.48500000e+03 
549.456  1.58400000e+03 
549.420  1.61000000e+03 
549.384  1.50000000e+03 
549.348  1.48800000e+03 
549.312  1.47200000e+03 
549.276  1.49800000e+03 
549.240  1.52600000e+03 
549.204  1.45400000e+03 
549.168  1.41400000e+03 
549.132  1.40900000e+03 
549.096  1.44700000e+03 
549.060  1.46000000e+03 
549.024  1.45900000e+03 
548.987  1.36700000e+03 
548.951  1.42800000e+03 
548.915  1.42500000e+03 
548.879  1.51200000e+03 
548.843  1.44800000e+03 
548.807  1.39000000e+03 
548.771  1.44700000e+03 
548.735  1.37000000e+03 
548.699  1.36300000e+03 
548.663  1.38400000e+03 
548.627  1.35500000e+03 
548.591  1.36700000e+03 
548.555  1.29500000e+03 
548.518  1.32800000e+03 
548.482  1.34900000e+03 
548.446  1.38800000e+03 
548.410  1.35300000e+03 
548.374  1.28300000e+03 
548.338  1.37800000e+03 
548.302  1.36000000e+03 
548.266  1.36700000e+03 
548.230  1.32200000e+03 
548.194  1.29300000e+03 
548.158  1.27300000e+03 
548.122  1.32900000e+03 
548.085  1.33900000e+03 
548.049  1.26400000e+03 
548.013  1.25900000e+03 
547.977  1.27600000e+03 
547.941  1.27800000e+03 
547.905  1.24800000e+03 
547.869  1.25100000e+03 
547.833  1.09900000e+03 
547.797  1.27400000e+03 
547.761  9.57000000e+02 
547.725  1.00200000e+03 
547.689  1.09000000e+03 
547.653  8.53000000e+02 
547.616  9.85000000e+02 
547.580  9.71000000e+02 
547.544  7.10000000e+02 
547.508  6.41000000e+02 
547.472  3.37000000e+02 
547.436  0.00000000e+00 
547.400  0.00000000e+00 

[ L= 1 R= 10 ]
BEcenter= 552.000 
BEwidth= -9.200  
Excitation= 1486.600
Time_p_channel= 1000.000
Size= 256
556.600  1.68200000e+03 
556.564  1.76200000e+03 
556.528  1.74700000e+03 
556.492  1.69300000e+03 
556.456  1.78700000e+03 
556.420  1.78600000e+03 
556.384  1.73800000e+03 
556.347  1.81900000e+03 
556.311  1.75100000e+03 
556.275  1.73400000e+03 
556.239  1.84200000e+03 
556.203  1.79300000e+03 
556.167  1.76600000e+03 
556.131  1.82200000e+03 
556.095  1.77100000e+03 
556.059  1.81200000e+03 
556.023  1.78100000e+03 
555.987  1.78000000e+03 
555.951  1.74700000e+03 
555.915  1.85000000e+03 
555.878  1.78000000e+03 
555.842  1.76800000e+03 
555.806  1.72600000e+03 
555.770  1.78400000e+03 
555.734  1.89200000e+03 
555.698  1.81000000e+03 
555.662  1.78700000e+03 
555.626  1.90500000e+03 
555.590  1.84700000e+03 
555.554  1.83300000e+03 
555.518  1.90400000e+03 
555.482  1.84100000e+03 
555.445  1.83500000e+03 
555.409  1.87300000e+03 
555.373  1.86700000e+03 
555.337  1.93800000e+03 
555.301  1.87800000e+03 
555.265  1.94600000e+03 
555.229  1.88200000e+03 
555.193  1.98000000e+03 
555.157  1.85400000e+03 
555.121  1.89900000e+03 
555.085  2.01300000e+03 
555.049  1.92600000e+03 
555.013  1.96000000e+03 
554.976  1.89200000e+03 
554.940  1.94000000e+03 
554.904  1.94200000e+03 
554.868  1.93800000e+03 
554.832  1.93300000e+03 
554.796  2.05700000e+03 
554.760  2.07500000e+03 
554.724  1.97700000e+03 
554.688  2.00000000e+03 
554.652  2.06100000e+03 
554.616  2.05400000e+03 
554.580  1.92900000e+03 
554.544  2.01500000e+03 
554.507  1.97200000e+03 
554.471  2.03400000e+03 
554.435  2.00000000e+03 
554.399  1.98900000e+03 
554.363  1.92100000e+03 
554.327  1.92100000e+03 
554.291  1.93400000e+03 
554.255  1.98200000e+03 
554.219  2.01100000e+03 
554.183  1.98800000e+03 
554.147  2.02000000e+03 
554.111  1.92500000e+03 
554.075  1.97500000e+03 
554.038  1.96500000e+03 
554.002  1.99900000e+03 
553.966  1.99200000e+03 
553.930  2.00200000e+03 
553.894  1.99000000e+03 
553.858  2.09500000e+03 
553.822  2.04500000e+03 
553.786  2.05100000e+03 
553.750  2.07200000e+03 
553.714  2.09700000e+03 
553.678  2.12700000e+03 
553.642  2.07000000e+03 
553.605  2.06600000e+03 
553.569  2.11400000e+03 
553.533  2.16500000e+03 
553.497  2.18400000e+03 
553.461  2.15700000e+03 
553.425  2.11500000e+03 
553.389  2.11800000e+03 
553.353  2.12400000e+03 
553.317  2.01600000e+03 
553.281  2.00600000e+03 
553.245  2.17900000e+03 
553.209  2.11700000e+03 
553.173  2.06100000e+03 
553.136  2.05000000e+03 
553.100  2.05300000e+03 
553.064  2.07200000e+03 
553.028  2.07200000e+03 
552.992  2.02500000e+03 
552.956  2.02300000e+03 
552.920  2.02700000e+03 
552.884  1.91500000e+03 
552.848  2.08300000e+03 
552.812  2.03700000e+03 
552.776  2.00200000e+03 
552.740  1.94500000e+03 
552.704  2.02500000e+03 
552.667  1.99500000e+03 
552.631  1.99300000e+03 
552.595  2.02100000e+03 
552.559  2.05600000e+03 
552.523  1.98700000e+03 
552.487  1.92900000e+03 
552.451  1.85700000e+03 
552.415  1.96200000e+03 
552.379  1.86400000e+03 
552.343  1.93500000e+03 
552.307  1.95900000e+03 
552.271  1.94800000e+03 
552.235  1.90300000e+03 
552.198  1.93700000e+03 
552.162  1.94000000e+03 
552.126  1.89600000e+03 
552.090  1.85300000e+03 
552.054  1.85300000e+03 
552.018  1.85800000e+03 
551.982  1.79100000e+03 
551.946  1.88500000e+03 
551.910  1.83800000e+03 
551.874  1.85400000e+03 
551.838  1.80400000e+03 
551.802  1.79600000e+03 
551.765  1.86700000e+03 
551.729  1.86600000e+03 
551.693  1.84000000e+03 
551.657  1.82000000e+03 
551.621  1.87100000e+03 
551.585  1.83200000e+03 
551.549  1.87200000e+03 
551.513  1.77700000e+03 
551.477  1.80200000e+03 
551.441  1.81600000e+03 
551.405  1.80700000e+03 
551.369  1.83900000e+03 
551.333  1.78000000e+03 
551.296  1.79100000e+03 
551.260  1.78200000e+03 
551.224  1.78200000e+03 
551.188  1.82100000e+03 
551.152  1.72100000e+03 
551.116  1.75900000e+03 
551.080  1.72800000e+03 
551.044  1.83100000e+03 
551.008  1.70000000e+03 
550.972  1.73700000e+03 
550.936  1.58900000e+03 
550.900  1.69700000e+03 
550.864  1.67000000e+03 
550.827  1.76500000e+03 
550.791  1.70700000e+03 
550.755  1.67900000e+03 
550.719  1.76100000e+03 
550.683  1.71600000e+03 
550.647  1.68700000e+03 
550.611  1.62000000e+03 
550.575  1.70200000e+03 
550.539  1.69000000e+03 
550.503  1.63300000e+03 
550.467  1.67400000e+03 
550.431  1.64000000e+03 
550.395  1.63800000e+03 
550.358  1.64700000e+03 
550.322  1.60500000e+03 
550.286  1.72400000e+03 
550.250  1.72700000e+03 
550.214  1.62700000e+03 
550.178  1.66400000e+03 
550.142  1.62300000e+03 
550.106  1.61800000e+03 
550.070  1.66600000e+03 
550.034  1.69100000e+03 
549.998  1.66700000e+03 
549.962  1.74400000e+03 
549.925  1.68200000e+03 
549.889  1.59700000e+03 
549.853  1.66900000e+03 
549.817  1.63300000e+03 
549.781  1.70800000e+03 
549.745  1.55300000e+03 
549.709  1.57600000e+03 
549.673  1.60700000e+03 
549.637  1.65600000e+03 
549.601  1.55400000e+03 
549.565  1.62600000e+03 
549.529  1.59400000e+03 
549.493  1.54300000e+03 
549.456  1.53000000e+03 
549.420  1.55200000e+03 
549.384  1.51400000e+03 
549.348  1.44100000e+03 
549.312  1.51000000e+03 
549.276  1.46800000e+03 
549.240  1.54800000e+03 
549.204  1.50100000e+03 
549.168  1.45100000e+03 
549.132  1.54400000e+03 
549.096  1.46400000e+03 
549.060  1.42400000e+03 
549.024  1.37100000e+03 
548.987  1.47200000e+03 
548.951  1.49200000e+03 
548.915  1.40600000e+03 
548.879  1.40200000e+03 
548.843  1.41400000e+03 
548.807  1.43100000e+03 
548.771  1.39600000e+03 
548.735  1.35700000e+03 
548.699  1.40100000e+03 
548.663  1.32200000e+03 
548.627  1.41400000e+03 
548.591  1.32600000e+03 
548.555  1.32900000e+03 
548.518  1.36300000e+03 
548.482  1.32900000e+03 
548.446  1.38000000e+03 
548.410  1.27200000e+03 
548.374  1.26200000e+03 
548.338  1.30800000e+03 
548.302  1.31900000e+03 
548.266  1.39300000e+03 
548.230  1.29400000e+03 
548.194  1.33400000e+03 
548.158  1.28900000e+03 
548.122  1.28800000e+03 
548.085  1.26700000e+03 
548.049  1.33500000e+03 
548.013  1.24200000e+03 
547.977  1.29700000e+03 
547.941  1.23700000e+03 
547.905  1.22100000e+03 
547.869  1.17500000e+03 
547.833  1.09800000e+03 
547.797  1.26000000e+03 
547.761  1.00700000e+03 
547.725  9.92000000e+02 
547.689  1.07300000e+03 
547.653  8.69000000e+02 
547.616  9.34000000e+02 
547.580  9.78000000e+02 
547.544  7.00000000e+02 
547.508  5.63000000e+02 
547.472  3.61000000e+02 
547.436  0.00000000e+00 
547.400  0.00000000e+00 

