EXPERIMENT FILE
Version = 2

[ Experiment Parameters ]
Experiment Description= two 
Number_of_Regions_in_Experiment= 10 

Original_File_name= C:\alexesca\data\Noise]\Batch2_20Cu854_111414.xps 
Instrument= HP ESCA West
Date= 11-17-2014
Time=  15:02:55

[ Layer Parameters ]
Layer_Type= XPS

[ Region 1 Parameters ]
Region_Description = Fixed854eV                         
BEcenter(eV) = 854.000000
BEwidth(eV) = 9.200000
BEstep(eV) = 0.035937
Dwell_Time(sec) = 1.000000
N_o_scans = 1000  
N_o_Channels = 256  
Scan_mode = 1  (FIXED)

[ Region 2 Parameters ]
Region_Description = Fixed854eV                         
BEcenter(eV) = 854.000000
BEwidth(eV) = 9.200000
BEstep(eV) = 0.035937
Dwell_Time(sec) = 1.000000
N_o_scans = 1000  
N_o_Channels = 256  
Scan_mode = 1  (FIXED)

[ Region 3 Parameters ]
Region_Description = Fixed854eV                         
BEcenter(eV) = 854.000000
BEwidth(eV) = 9.200000
BEstep(eV) = 0.035937
Dwell_Time(sec) = 1.000000
N_o_scans = 1000  
N_o_Channels = 256  
Scan_mode = 1  (FIXED)

[ Region 4 Parameters ]
Region_Description = Fixed854eV                         
BEcenter(eV) = 854.000000
BEwidth(eV) = 9.200000
BEstep(eV) = 0.035937
Dwell_Time(sec) = 1.000000
N_o_scans = 1000  
N_o_Channels = 256  
Scan_mode = 1  (FIXED)

[ Region 5 Parameters ]
Region_Description = Fixed854eV                         
BEcenter(eV) = 854.000000
BEwidth(eV) = 9.200000
BEstep(eV) = 0.035937
Dwell_Time(sec) = 1.000000
N_o_scans = 1000  
N_o_Channels = 256  
Scan_mode = 1  (FIXED)

[ Region 6 Parameters ]
Region_Description = Fixed854eV                         
BEcenter(eV) = 854.000000
BEwidth(eV) = 9.200000
BEstep(eV) = 0.035937
Dwell_Time(sec) = 1.000000
N_o_scans = 1000  
N_o_Channels = 256  
Scan_mode = 1  (FIXED)

[ Region 7 Parameters ]
Region_Description = Fixed854eV                         
BEcenter(eV) = 854.000000
BEwidth(eV) = 9.200000
BEstep(eV) = 0.035937
Dwell_Time(sec) = 1.000000
N_o_scans = 1000  
N_o_Channels = 256  
Scan_mode = 1  (FIXED)

[ Region 8 Parameters ]
Region_Description = Fixed854eV                         
BEcenter(eV) = 854.000000
BEwidth(eV) = 9.200000
BEstep(eV) = 0.035937
Dwell_Time(sec) = 1.000000
N_o_scans = 1000  
N_o_Channels = 256  
Scan_mode = 1  (FIXED)

[ Region 9 Parameters ]
Region_Description = Fixed854eV                         
BEcenter(eV) = 854.000000
BEwidth(eV) = 9.200000
BEstep(eV) = 0.035937
Dwell_Time(sec) = 1.000000
N_o_scans = 1000  
N_o_Channels = 256  
Scan_mode = 1  (FIXED)

[ Region 10 Parameters ]
Region_Description = Fixed854eV                         
BEcenter(eV) = 854.000000
BEwidth(eV) = 9.200000
BEstep(eV) = 0.035937
Dwell_Time(sec) = 1.000000
N_o_scans = 1000  
N_o_Channels = 256  
Scan_mode = 1  (FIXED)

[ L= 1 R= 1 ]
BEcenter= 854.000 
BEwidth= -9.200  
Excitation= 1486.600
Time_p_channel= 1000.000
Size= 256
858.600  1.64600000e+03 
858.564  1.67600000e+03 
858.528  1.69600000e+03 
858.492  1.63200000e+03 
858.456  1.75100000e+03 
858.420  1.77700000e+03 
858.384  1.78600000e+03 
858.347  1.78800000e+03 
858.311  1.71800000e+03 
858.275  1.73300000e+03 
858.239  1.67200000e+03 
858.203  1.80000000e+03 
858.167  1.72300000e+03 
858.131  1.76100000e+03 
858.095  1.71800000e+03 
858.059  1.80900000e+03 
858.023  1.78400000e+03 
857.987  1.79400000e+03 
857.951  1.80800000e+03 
857.915  1.78100000e+03 
857.878  1.80200000e+03 
857.842  1.87400000e+03 
857.806  1.85500000e+03 
857.770  1.83800000e+03 
857.734  1.87000000e+03 
857.698  1.81300000e+03 
857.662  1.83700000e+03 
857.626  1.83400000e+03 
857.590  1.83400000e+03 
857.554  1.90600000e+03 
857.518  1.88600000e+03 
857.482  1.90400000e+03 
857.445  1.98600000e+03 
857.409  1.89200000e+03 
857.373  1.93300000e+03 
857.337  1.82300000e+03 
857.301  1.99100000e+03 
857.265  1.99500000e+03 
857.229  1.94800000e+03 
857.193  1.99500000e+03 
857.157  2.00000000e+03 
857.121  1.97000000e+03 
857.085  1.97700000e+03 
857.049  1.92700000e+03 
857.013  1.97000000e+03 
856.976  1.94500000e+03 
856.940  2.01700000e+03 
856.904  2.06200000e+03 
856.868  2.02800000e+03 
856.832  2.02900000e+03 
856.796  2.07200000e+03 
856.760  2.09000000e+03 
856.724  1.99000000e+03 
856.688  2.06400000e+03 
856.652  2.05100000e+03 
856.616  2.03800000e+03 
856.580  1.99400000e+03 
856.544  2.04700000e+03 
856.507  2.05700000e+03 
856.471  2.07100000e+03 
856.435  2.10400000e+03 
856.399  2.10600000e+03 
856.363  2.10300000e+03 
856.327  2.12100000e+03 
856.291  2.10300000e+03 
856.255  2.04800000e+03 
856.219  2.07000000e+03 
856.183  2.06000000e+03 
856.147  2.08500000e+03 
856.111  2.12500000e+03 
856.075  2.12200000e+03 
856.038  2.10000000e+03 
856.002  2.05300000e+03 
855.966  2.18800000e+03 
855.930  2.17800000e+03 
855.894  2.19300000e+03 
855.858  2.14000000e+03 
855.822  2.21500000e+03 
855.786  2.22300000e+03 
855.750  2.23400000e+03 
855.714  2.15900000e+03 
855.678  2.19300000e+03 
855.642  2.24200000e+03 
855.605  2.17100000e+03 
855.569  2.20900000e+03 
855.533  2.27200000e+03 
855.497  2.19000000e+03 
855.461  2.22600000e+03 
855.425  2.18300000e+03 
855.389  2.19500000e+03 
855.353  2.18200000e+03 
855.317  2.16900000e+03 
855.281  2.10800000e+03 
855.245  2.11800000e+03 
855.209  2.05700000e+03 
855.173  2.03300000e+03 
855.136  2.09800000e+03 
855.100  2.03600000e+03 
855.064  2.16600000e+03 
855.028  2.10700000e+03 
854.992  2.04800000e+03 
854.956  2.02500000e+03 
854.920  2.12600000e+03 
854.884  2.14500000e+03 
854.848  2.06400000e+03 
854.812  2.07700000e+03 
854.776  1.99500000e+03 
854.740  2.07100000e+03 
854.704  1.97000000e+03 
854.667  2.02800000e+03 
854.631  1.93200000e+03 
854.595  2.05300000e+03 
854.559  1.94300000e+03 
854.523  1.89800000e+03 
854.487  1.92600000e+03 
854.451  2.08800000e+03 
854.415  1.94300000e+03 
854.379  2.01600000e+03 
854.343  2.01500000e+03 
854.307  2.06500000e+03 
854.271  2.01200000e+03 
854.235  1.94100000e+03 
854.198  1.98100000e+03 
854.162  1.94100000e+03 
854.126  1.98600000e+03 
854.090  1.98300000e+03 
854.054  1.99100000e+03 
854.018  1.96000000e+03 
853.982  1.93200000e+03 
853.946  1.86100000e+03 
853.910  1.81300000e+03 
853.874  1.93400000e+03 
853.838  1.84600000e+03 
853.802  1.90800000e+03 
853.765  1.83500000e+03 
853.729  1.94100000e+03 
853.693  1.90400000e+03 
853.657  1.78300000e+03 
853.621  1.86400000e+03 
853.585  1.82100000e+03 
853.549  1.84200000e+03 
853.513  1.82300000e+03 
853.477  1.87900000e+03 
853.441  1.85500000e+03 
853.405  1.85400000e+03 
853.369  1.82300000e+03 
853.333  1.90200000e+03 
853.296  1.87600000e+03 
853.260  1.82000000e+03 
853.224  1.79000000e+03 
853.188  1.78400000e+03 
853.152  1.70500000e+03 
853.116  1.75500000e+03 
853.080  1.80300000e+03 
853.044  1.78200000e+03 
853.008  1.81500000e+03 
852.972  1.77600000e+03 
852.936  1.71300000e+03 
852.900  1.79700000e+03 
852.864  1.75000000e+03 
852.827  1.82200000e+03 
852.791  1.69900000e+03 
852.755  1.72000000e+03 
852.719  1.80900000e+03 
852.683  1.73600000e+03 
852.647  1.70700000e+03 
852.611  1.72100000e+03 
852.575  1.72600000e+03 
852.539  1.63800000e+03 
852.503  1.63600000e+03 
852.467  1.64400000e+03 
852.431  1.66000000e+03 
852.395  1.72300000e+03 
852.358  1.77200000e+03 
852.322  1.64900000e+03 
852.286  1.73500000e+03 
852.250  1.69400000e+03 
852.214  1.81800000e+03 
852.178  1.72200000e+03 
852.142  1.66800000e+03 
852.106  1.80200000e+03 
852.070  1.71500000e+03 
852.034  1.65000000e+03 
851.998  1.72600000e+03 
851.962  1.67500000e+03 
851.925  1.65900000e+03 
851.889  1.66700000e+03 
851.853  1.67200000e+03 
851.817  1.64800000e+03 
851.781  1.73000000e+03 
851.745  1.61900000e+03 
851.709  1.63000000e+03 
851.673  1.60900000e+03 
851.637  1.63000000e+03 
851.601  1.59000000e+03 
851.565  1.61100000e+03 
851.529  1.60200000e+03 
851.493  1.59600000e+03 
851.456  1.56100000e+03 
851.420  1.59300000e+03 
851.384  1.54700000e+03 
851.348  1.60400000e+03 
851.312  1.49900000e+03 
851.276  1.49700000e+03 
851.240  1.50500000e+03 
851.204  1.52500000e+03 
851.168  1.52500000e+03 
851.132  1.51200000e+03 
851.096  1.44500000e+03 
851.060  1.50400000e+03 
851.024  1.40600000e+03 
850.987  1.47600000e+03 
850.951  1.45100000e+03 
850.915  1.42200000e+03 
850.879  1.40900000e+03 
850.843  1.46700000e+03 
850.807  1.41600000e+03 
850.771  1.42700000e+03 
850.735  1.52400000e+03 
850.699  1.43500000e+03 
850.663  1.33500000e+03 
850.627  1.38900000e+03 
850.591  1.40500000e+03 
850.555  1.34000000e+03 
850.518  1.29200000e+03 
850.482  1.37900000e+03 
850.446  1.41200000e+03 
850.410  1.32900000e+03 
850.374  1.42200000e+03 
850.338  1.33500000e+03 
850.302  1.35900000e+03 
850.266  1.37800000e+03 
850.230  1.28300000e+03 
850.194  1.30700000e+03 
850.158  1.31700000e+03 
850.122  1.35400000e+03 
850.085  1.24400000e+03 
850.049  1.38700000e+03 
850.013  1.28200000e+03 
849.977  1.29100000e+03 
849.941  1.28400000e+03 
849.905  1.27700000e+03 
849.869  1.25200000e+03 
849.833  1.10800000e+03 
849.797  1.21600000e+03 
849.761  1.04500000e+03 
849.725  1.03300000e+03 
849.689  1.10100000e+03 
849.653  8.65000000e+02 
849.616  1.00800000e+03 
849.580  9.43000000e+02 
849.544  7.43000000e+02 
849.508  6.34000000e+02 
849.472  3.54000000e+02 
849.436  0.00000000e+00 
849.400  0.00000000e+00 

[ L= 1 R= 2 ]
BEcenter= 854.000 
BEwidth= -9.200  
Excitation= 1486.600
Time_p_channel= 1000.000
Size= 256
858.600  1.55600000e+03 
858.564  1.71700000e+03 
858.528  1.70000000e+03 
858.492  1.72900000e+03 
858.456  1.73100000e+03 
858.420  1.75100000e+03 
858.384  1.69400000e+03 
858.347  1.78700000e+03 
858.311  1.83000000e+03 
858.275  1.82200000e+03 
858.239  1.83700000e+03 
858.203  1.81900000e+03 
858.167  1.69600000e+03 
858.131  1.84300000e+03 
858.095  1.73300000e+03 
858.059  1.81400000e+03 
858.023  1.83900000e+03 
857.987  1.77600000e+03 
857.951  1.82200000e+03 
857.915  1.78200000e+03 
857.878  1.80900000e+03 
857.842  1.73700000e+03 
857.806  1.81700000e+03 
857.770  1.75000000e+03 
857.734  1.80400000e+03 
857.698  1.86700000e+03 
857.662  1.80000000e+03 
857.626  1.83900000e+03 
857.590  1.83100000e+03 
857.554  1.84400000e+03 
857.518  1.78400000e+03 
857.482  1.92500000e+03 
857.445  1.80600000e+03 
857.409  1.89400000e+03 
857.373  1.86800000e+03 
857.337  1.92900000e+03 
857.301  1.91500000e+03 
857.265  1.93000000e+03 
857.229  1.97000000e+03 
857.193  1.95100000e+03 
857.157  1.97900000e+03 
857.121  1.98800000e+03 
857.085  2.00100000e+03 
857.049  1.89000000e+03 
857.013  1.96200000e+03 
856.976  2.00600000e+03 
856.940  1.99700000e+03 
856.904  2.06300000e+03 
856.868  2.08900000e+03 
856.832  2.03500000e+03 
856.796  1.98900000e+03 
856.760  2.03400000e+03 
856.724  2.05500000e+03 
856.688  2.01300000e+03 
856.652  2.03100000e+03 
856.616  2.07900000e+03 
856.580  2.10500000e+03 
856.544  2.03500000e+03 
856.507  2.06600000e+03 
856.471  2.06900000e+03 
856.435  2.09000000e+03 
856.399  2.13800000e+03 
856.363  2.08400000e+03 
856.327  2.09100000e+03 
856.291  2.15600000e+03 
856.255  2.05600000e+03 
856.219  2.03300000e+03 
856.183  2.12600000e+03 
856.147  2.05600000e+03 
856.111  2.09100000e+03 
856.075  2.15000000e+03 
856.038  2.18100000e+03 
856.002  2.06600000e+03 
855.966  2.18300000e+03 
855.930  2.14700000e+03 
855.894  2.08300000e+03 
855.858  2.22200000e+03 
855.822  2.19200000e+03 
855.786  2.12300000e+03 
855.750  2.17400000e+03 
855.714  2.11600000e+03 
855.678  2.16800000e+03 
855.642  2.19900000e+03 
855.605  2.18200000e+03 
855.569  2.18700000e+03 
855.533  2.30000000e+03 
855.497  2.16600000e+03 
855.461  2.29500000e+03 
855.425  2.22400000e+03 
855.389  2.19900000e+03 
855.353  2.17100000e+03 
855.317  2.16200000e+03 
855.281  2.15500000e+03 
855.245  2.10300000e+03 
855.209  2.00400000e+03 
855.173  2.07800000e+03 
855.136  2.22600000e+03 
855.100  2.16500000e+03 
855.064  2.02900000e+03 
855.028  2.12100000e+03 
854.992  2.07900000e+03 
854.956  2.14100000e+03 
854.920  2.08800000e+03 
854.884  2.02800000e+03 
854.848  2.05200000e+03 
854.812  2.02000000e+03 
854.776  2.00900000e+03 
854.740  2.14900000e+03 
854.704  1.97800000e+03 
854.667  2.06800000e+03 
854.631  1.96600000e+03 
854.595  1.97600000e+03 
854.559  1.91900000e+03 
854.523  1.94600000e+03 
854.487  1.93900000e+03 
854.451  1.96500000e+03 
854.415  1.94500000e+03 
854.379  1.99500000e+03 
854.343  1.94500000e+03 
854.307  1.95000000e+03 
854.271  1.99600000e+03 
854.235  1.92900000e+03 
854.198  1.88100000e+03 
854.162  1.94600000e+03 
854.126  1.92700000e+03 
854.090  2.01400000e+03 
854.054  1.90600000e+03 
854.018  1.97400000e+03 
853.982  1.86900000e+03 
853.946  1.86000000e+03 
853.910  1.88600000e+03 
853.874  1.96000000e+03 
853.838  1.92400000e+03 
853.802  1.94100000e+03 
853.765  1.90400000e+03 
853.729  1.94800000e+03 
853.693  1.88000000e+03 
853.657  1.90300000e+03 
853.621  1.86900000e+03 
853.585  1.94900000e+03 
853.549  1.87600000e+03 
853.513  1.82800000e+03 
853.477  1.86400000e+03 
853.441  1.90600000e+03 
853.405  1.75600000e+03 
853.369  1.87500000e+03 
853.333  1.85600000e+03 
853.296  1.82400000e+03 
853.260  1.83700000e+03 
853.224  1.82300000e+03 
853.188  1.84300000e+03 
853.152  1.77000000e+03 
853.116  1.79100000e+03 
853.080  1.78500000e+03 
853.044  1.82400000e+03 
853.008  1.80400000e+03 
852.972  1.79600000e+03 
852.936  1.74100000e+03 
852.900  1.73500000e+03 
852.864  1.73800000e+03 
852.827  1.80400000e+03 
852.791  1.69500000e+03 
852.755  1.71000000e+03 
852.719  1.70800000e+03 
852.683  1.75300000e+03 
852.647  1.74200000e+03 
852.611  1.69200000e+03 
852.575  1.67400000e+03 
852.539  1.71700000e+03 
852.503  1.66600000e+03 
852.467  1.64500000e+03 
852.431  1.66400000e+03 
852.395  1.71400000e+03 
852.358  1.70200000e+03 
852.322  1.70200000e+03 
852.286  1.68300000e+03 
852.250  1.77800000e+03 
852.214  1.67100000e+03 
852.178  1.65200000e+03 
852.142  1.79100000e+03 
852.106  1.81500000e+03 
852.070  1.69200000e+03 
852.034  1.78500000e+03 
851.998  1.69000000e+03 
851.962  1.67600000e+03 
851.925  1.69500000e+03 
851.889  1.61300000e+03 
851.853  1.57100000e+03 
851.817  1.66300000e+03 
851.781  1.58200000e+03 
851.745  1.66400000e+03 
851.709  1.63400000e+03 
851.673  1.57700000e+03 
851.637  1.68300000e+03 
851.601  1.55000000e+03 
851.565  1.61600000e+03 
851.529  1.57600000e+03 
851.493  1.56900000e+03 
851.456  1.56800000e+03 
851.420  1.54400000e+03 
851.384  1.49500000e+03 
851.348  1.58400000e+03 
851.312  1.53500000e+03 
851.276  1.52600000e+03 
851.240  1.51700000e+03 
851.204  1.48600000e+03 
851.168  1.55700000e+03 
851.132  1.51800000e+03 
851.096  1.51300000e+03 
851.060  1.48000000e+03 
851.024  1.43400000e+03 
850.987  1.45200000e+03 
850.951  1.45500000e+03 
850.915  1.41200000e+03 
850.879  1.38400000e+03 
850.843  1.40700000e+03 
850.807  1.46800000e+03 
850.771  1.43200000e+03 
850.735  1.39600000e+03 
850.699  1.43900000e+03 
850.663  1.36700000e+03 
850.627  1.33700000e+03 
850.591  1.47200000e+03 
850.555  1.42900000e+03 
850.518  1.30900000e+03 
850.482  1.40300000e+03 
850.446  1.33300000e+03 
850.410  1.32300000e+03 
850.374  1.37200000e+03 
850.338  1.36700000e+03 
850.302  1.39200000e+03 
850.266  1.30900000e+03 
850.230  1.24900000e+03 
850.194  1.32000000e+03 
850.158  1.35100000e+03 
850.122  1.27500000e+03 
850.085  1.31900000e+03 
850.049  1.22700000e+03 
850.013  1.32900000e+03 
849.977  1.23000000e+03 
849.941  1.25100000e+03 
849.905  1.20400000e+03 
849.869  1.20700000e+03 
849.833  1.14100000e+03 
849.797  1.25800000e+03 
849.761  9.67000000e+02 
849.725  1.00100000e+03 
849.689  1.14200000e+03 
849.653  8.68000000e+02 
849.616  9.82000000e+02 
849.580  9.40000000e+02 
849.544  7.01000000e+02 
849.508  6.29000000e+02 
849.472  3.30000000e+02 
849.436  0.00000000e+00 
849.400  0.00000000e+00 

[ L= 1 R= 3 ]
BEcenter= 854.000 
BEwidth= -9.200  
Excitation= 1486.600
Time_p_channel= 1000.000
Size= 256
858.600  1.55600000e+03 
858.564  1.69400000e+03 
858.528  1.68000000e+03 
858.492  1.68900000e+03 
858.456  1.76300000e+03 
858.420  1.70400000e+03 
858.384  1.74300000e+03 
858.347  1.76000000e+03 
858.311  1.70600000e+03 
858.275  1.80700000e+03 
858.239  1.81500000e+03 
858.203  1.80600000e+03 
858.167  1.71300000e+03 
858.131  1.73500000e+03 
858.095  1.80000000e+03 
858.059  1.72000000e+03 
858.023  1.86000000e+03 
857.987  1.81700000e+03 
857.951  1.87200000e+03 
857.915  1.73900000e+03 
857.878  1.80100000e+03 
857.842  1.79900000e+03 
857.806  1.81100000e+03 
857.770  1.82100000e+03 
857.734  1.73500000e+03 
857.698  1.75900000e+03 
857.662  1.81500000e+03 
857.626  1.79100000e+03 
857.590  1.84900000e+03 
857.554  1.89600000e+03 
857.518  1.80300000e+03 
857.482  1.83300000e+03 
857.445  1.91300000e+03 
857.409  1.88400000e+03 
857.373  1.94100000e+03 
857.337  1.89900000e+03 
857.301  1.88800000e+03 
857.265  1.91500000e+03 
857.229  1.93900000e+03 
857.193  1.94700000e+03 
857.157  1.96000000e+03 
857.121  1.91900000e+03 
857.085  1.98100000e+03 
857.049  1.99600000e+03 
857.013  1.99000000e+03 
856.976  1.98500000e+03 
856.940  1.91900000e+03 
856.904  2.14600000e+03 
856.868  2.06000000e+03 
856.832  1.99600000e+03 
856.796  2.05200000e+03 
856.760  1.99200000e+03 
856.724  1.97200000e+03 
856.688  2.17100000e+03 
856.652  2.12200000e+03 
856.616  2.06200000e+03 
856.580  2.09100000e+03 
856.544  2.03300000e+03 
856.507  2.04000000e+03 
856.471  1.99500000e+03 
856.435  2.08700000e+03 
856.399  2.07100000e+03 
856.363  2.13300000e+03 
856.327  1.97400000e+03 
856.291  2.00800000e+03 
856.255  2.08300000e+03 
856.219  2.12000000e+03 
856.183  2.14000000e+03 
856.147  1.99700000e+03 
856.111  2.12000000e+03 
856.075  2.13200000e+03 
856.038  2.05700000e+03 
856.002  2.14600000e+03 
855.966  2.08000000e+03 
855.930  2.05200000e+03 
855.894  2.16000000e+03 
855.858  2.16200000e+03 
855.822  2.15400000e+03 
855.786  2.17100000e+03 
855.750  2.09500000e+03 
855.714  2.18400000e+03 
855.678  2.21800000e+03 
855.642  2.25600000e+03 
855.605  2.19600000e+03 
855.569  2.08100000e+03 
855.533  2.19600000e+03 
855.497  2.18500000e+03 
855.461  2.21900000e+03 
855.425  2.24200000e+03 
855.389  2.18700000e+03 
855.353  2.21000000e+03 
855.317  2.10000000e+03 
855.281  2.08100000e+03 
855.245  2.19800000e+03 
855.209  2.08600000e+03 
855.173  2.12700000e+03 
855.136  2.06600000e+03 
855.100  2.11200000e+03 
855.064  2.10100000e+03 
855.028  2.17100000e+03 
854.992  2.15700000e+03 
854.956  2.01700000e+03 
854.920  2.04400000e+03 
854.884  2.05100000e+03 
854.848  2.04200000e+03 
854.812  2.04900000e+03 
854.776  2.05700000e+03 
854.740  2.09200000e+03 
854.704  1.98300000e+03 
854.667  2.07300000e+03 
854.631  2.00700000e+03 
854.595  2.04900000e+03 
854.559  1.90800000e+03 
854.523  1.93500000e+03 
854.487  1.93700000e+03 
854.451  1.93900000e+03 
854.415  1.84500000e+03 
854.379  1.94900000e+03 
854.343  1.99200000e+03 
854.307  1.98100000e+03 
854.271  1.96400000e+03 
854.235  1.89300000e+03 
854.198  1.93300000e+03 
854.162  1.96400000e+03 
854.126  1.88500000e+03 
854.090  1.91900000e+03 
854.054  1.91300000e+03 
854.018  1.88400000e+03 
853.982  1.91700000e+03 
853.946  1.91200000e+03 
853.910  1.81800000e+03 
853.874  1.86000000e+03 
853.838  1.88600000e+03 
853.802  1.91000000e+03 
853.765  1.90300000e+03 
853.729  1.91600000e+03 
853.693  1.83800000e+03 
853.657  1.84900000e+03 
853.621  1.87000000e+03 
853.585  1.78200000e+03 
853.549  1.88200000e+03 
853.513  1.81300000e+03 
853.477  1.84200000e+03 
853.441  1.84000000e+03 
853.405  1.78700000e+03 
853.369  1.77000000e+03 
853.333  1.79000000e+03 
853.296  1.84100000e+03 
853.260  1.80200000e+03 
853.224  1.82200000e+03 
853.188  1.75100000e+03 
853.152  1.76000000e+03 
853.116  1.68900000e+03 
853.080  1.81700000e+03 
853.044  1.74200000e+03 
853.008  1.76500000e+03 
852.972  1.77400000e+03 
852.936  1.82300000e+03 
852.900  1.75700000e+03 
852.864  1.71700000e+03 
852.827  1.73700000e+03 
852.791  1.76900000e+03 
852.755  1.77000000e+03 
852.719  1.72000000e+03 
852.683  1.70100000e+03 
852.647  1.75800000e+03 
852.611  1.63600000e+03 
852.575  1.66500000e+03 
852.539  1.73200000e+03 
852.503  1.65400000e+03 
852.467  1.75900000e+03 
852.431  1.68500000e+03 
852.395  1.71000000e+03 
852.358  1.64800000e+03 
852.322  1.66100000e+03 
852.286  1.75400000e+03 
852.250  1.68100000e+03 
852.214  1.71700000e+03 
852.178  1.63300000e+03 
852.142  1.68500000e+03 
852.106  1.67500000e+03 
852.070  1.69200000e+03 
852.034  1.69400000e+03 
851.998  1.69200000e+03 
851.962  1.64100000e+03 
851.925  1.64000000e+03 
851.889  1.68100000e+03 
851.853  1.65800000e+03 
851.817  1.64200000e+03 
851.781  1.64300000e+03 
851.745  1.58500000e+03 
851.709  1.61300000e+03 
851.673  1.58100000e+03 
851.637  1.57900000e+03 
851.601  1.53300000e+03 
851.565  1.60200000e+03 
851.529  1.55600000e+03 
851.493  1.52000000e+03 
851.456  1.55000000e+03 
851.420  1.58500000e+03 
851.384  1.49800000e+03 
851.348  1.48100000e+03 
851.312  1.61200000e+03 
851.276  1.51600000e+03 
851.240  1.51200000e+03 
851.204  1.47100000e+03 
851.168  1.50300000e+03 
851.132  1.45200000e+03 
851.096  1.50800000e+03 
851.060  1.49500000e+03 
851.024  1.48600000e+03 
850.987  1.48300000e+03 
850.951  1.43200000e+03 
850.915  1.45900000e+03 
850.879  1.37100000e+03 
850.843  1.42800000e+03 
850.807  1.42400000e+03 
850.771  1.39700000e+03 
850.735  1.46000000e+03 
850.699  1.37000000e+03 
850.663  1.37800000e+03 
850.627  1.35400000e+03 
850.591  1.35900000e+03 
850.555  1.37200000e+03 
850.518  1.34500000e+03 
850.482  1.36300000e+03 
850.446  1.32000000e+03 
850.410  1.39300000e+03 
850.374  1.34000000e+03 
850.338  1.31300000e+03 
850.302  1.36300000e+03 
850.266  1.38800000e+03 
850.230  1.38100000e+03 
850.194  1.34700000e+03 
850.158  1.37500000e+03 
850.122  1.28600000e+03 
850.085  1.40400000e+03 
850.049  1.34900000e+03 
850.013  1.25900000e+03 
849.977  1.28300000e+03 
849.941  1.28100000e+03 
849.905  1.24400000e+03 
849.869  1.25800000e+03 
849.833  1.14900000e+03 
849.797  1.28800000e+03 
849.761  9.90000000e+02 
849.725  1.04000000e+03 
849.689  1.13500000e+03 
849.653  8.47000000e+02 
849.616  9.92000000e+02 
849.580  9.42000000e+02 
849.544  6.99000000e+02 
849.508  6.25000000e+02 
849.472  3.93000000e+02 
849.436  0.00000000e+00 
849.400  0.00000000e+00 

[ L= 1 R= 4 ]
BEcenter= 854.000 
BEwidth= -9.200  
Excitation= 1486.600
Time_p_channel= 1000.000
Size= 256
858.600  1.55900000e+03 
858.564  1.60300000e+03 
858.528  1.65800000e+03 
858.492  1.67800000e+03 
858.456  1.72200000e+03 
858.420  1.70200000e+03 
858.384  1.72700000e+03 
858.347  1.73500000e+03 
858.311  1.72900000e+03 
858.275  1.76200000e+03 
858.239  1.71100000e+03 
858.203  1.77800000e+03 
858.167  1.85000000e+03 
858.131  1.81300000e+03 
858.095  1.76100000e+03 
858.059  1.78100000e+03 
858.023  1.73700000e+03 
857.987  1.80900000e+03 
857.951  1.80000000e+03 
857.915  1.74400000e+03 
857.878  1.75800000e+03 
857.842  1.70500000e+03 
857.806  1.85700000e+03 
857.770  1.82100000e+03 
857.734  1.83100000e+03 
857.698  1.77400000e+03 
857.662  1.86200000e+03 
857.626  1.87600000e+03 
857.590  1.91400000e+03 
857.554  1.79300000e+03 
857.518  1.85400000e+03 
857.482  1.80200000e+03 
857.445  1.89200000e+03 
857.409  1.87800000e+03 
857.373  1.86800000e+03 
857.337  1.91700000e+03 
857.301  1.84600000e+03 
857.265  1.97600000e+03 
857.229  1.89200000e+03 
857.193  1.93300000e+03 
857.157  1.95500000e+03 
857.121  1.92800000e+03 
857.085  2.05000000e+03 
857.049  1.91900000e+03 
857.013  1.89300000e+03 
856.976  1.93700000e+03 
856.940  1.97100000e+03 
856.904  2.08000000e+03 
856.868  2.02400000e+03 
856.832  1.96000000e+03 
856.796  2.02900000e+03 
856.760  2.05200000e+03 
856.724  2.11000000e+03 
856.688  2.06900000e+03 
856.652  2.07200000e+03 
856.616  1.99900000e+03 
856.580  2.09600000e+03 
856.544  2.09600000e+03 
856.507  2.06900000e+03 
856.471  2.04300000e+03 
856.435  2.09600000e+03 
856.399  2.11900000e+03 
856.363  2.07000000e+03 
856.327  2.02200000e+03 
856.291  2.00300000e+03 
856.255  2.07900000e+03 
856.219  2.06300000e+03 
856.183  2.03800000e+03 
856.147  2.04600000e+03 
856.111  2.14000000e+03 
856.075  2.10100000e+03 
856.038  2.07400000e+03 
856.002  2.08900000e+03 
855.966  2.12500000e+03 
855.930  2.16700000e+03 
855.894  2.14500000e+03 
855.858  2.13600000e+03 
855.822  2.07900000e+03 
855.786  2.08300000e+03 
855.750  2.16000000e+03 
855.714  2.25100000e+03 
855.678  2.18000000e+03 
855.642  2.21000000e+03 
855.605  2.20600000e+03 
855.569  2.19800000e+03 
855.533  2.19700000e+03 
855.497  2.28100000e+03 
855.461  2.11400000e+03 
855.425  2.16800000e+03 
855.389  2.18200000e+03 
855.353  2.17700000e+03 
855.317  2.17400000e+03 
855.281  2.08900000e+03 
855.245  2.16000000e+03 
855.209  2.13000000e+03 
855.173  2.02300000e+03 
855.136  2.06300000e+03 
855.100  2.10700000e+03 
855.064  2.11700000e+03 
855.028  2.10000000e+03 
854.992  2.12400000e+03 
854.956  2.11900000e+03 
854.920  2.13800000e+03 
854.884  2.10000000e+03 
854.848  2.03200000e+03 
854.812  2.05800000e+03 
854.776  2.03000000e+03 
854.740  2.04000000e+03 
854.704  2.00200000e+03 
854.667  1.97600000e+03 
854.631  2.01600000e+03 
854.595  2.01200000e+03 
854.559  1.94500000e+03 
854.523  2.03900000e+03 
854.487  1.86100000e+03 
854.451  1.97600000e+03 
854.415  1.95100000e+03 
854.379  1.90200000e+03 
854.343  1.96500000e+03 
854.307  1.95200000e+03 
854.271  2.00300000e+03 
854.235  1.88400000e+03 
854.198  1.90900000e+03 
854.162  1.97800000e+03 
854.126  1.93700000e+03 
854.090  1.96500000e+03 
854.054  1.95000000e+03 
854.018  1.90100000e+03 
853.982  1.92300000e+03 
853.946  1.88500000e+03 
853.910  1.88400000e+03 
853.874  1.85000000e+03 
853.838  1.85400000e+03 
853.802  1.86700000e+03 
853.765  1.84600000e+03 
853.729  1.84900000e+03 
853.693  1.87200000e+03 
853.657  1.86800000e+03 
853.621  1.83700000e+03 
853.585  1.85900000e+03 
853.549  1.87100000e+03 
853.513  1.90100000e+03 
853.477  1.77900000e+03 
853.441  1.77600000e+03 
853.405  1.88700000e+03 
853.369  1.81000000e+03 
853.333  1.88100000e+03 
853.296  1.83000000e+03 
853.260  1.76900000e+03 
853.224  1.82900000e+03 
853.188  1.85000000e+03 
853.152  1.74300000e+03 
853.116  1.70800000e+03 
853.080  1.81100000e+03 
853.044  1.79900000e+03 
853.008  1.77200000e+03 
852.972  1.67000000e+03 
852.936  1.80000000e+03 
852.900  1.69000000e+03 
852.864  1.73600000e+03 
852.827  1.65500000e+03 
852.791  1.67700000e+03 
852.755  1.75400000e+03 
852.719  1.71700000e+03 
852.683  1.65600000e+03 
852.647  1.70900000e+03 
852.611  1.66000000e+03 
852.575  1.61300000e+03 
852.539  1.69700000e+03 
852.503  1.69700000e+03 
852.467  1.72100000e+03 
852.431  1.65200000e+03 
852.395  1.69700000e+03 
852.358  1.66700000e+03 
852.322  1.71100000e+03 
852.286  1.76500000e+03 
852.250  1.60200000e+03 
852.214  1.66100000e+03 
852.178  1.67800000e+03 
852.142  1.74100000e+03 
852.106  1.64000000e+03 
852.070  1.69600000e+03 
852.034  1.70100000e+03 
851.998  1.74600000e+03 
851.962  1.67300000e+03 
851.925  1.76000000e+03 
851.889  1.61200000e+03 
851.853  1.61700000e+03 
851.817  1.70600000e+03 
851.781  1.65700000e+03 
851.745  1.63600000e+03 
851.709  1.66100000e+03 
851.673  1.57500000e+03 
851.637  1.56700000e+03 
851.601  1.53000000e+03 
851.565  1.58600000e+03 
851.529  1.54600000e+03 
851.493  1.46600000e+03 
851.456  1.57000000e+03 
851.420  1.50500000e+03 
851.384  1.54600000e+03 
851.348  1.54700000e+03 
851.312  1.42900000e+03 
851.276  1.57700000e+03 
851.240  1.45100000e+03 
851.204  1.62500000e+03 
851.168  1.49600000e+03 
851.132  1.47000000e+03 
851.096  1.51800000e+03 
851.060  1.48700000e+03 
851.024  1.45800000e+03 
850.987  1.46000000e+03 
850.951  1.41200000e+03 
850.915  1.47900000e+03 
850.879  1.46000000e+03 
850.843  1.39900000e+03 
850.807  1.43600000e+03 
850.771  1.46400000e+03 
850.735  1.47200000e+03 
850.699  1.36300000e+03 
850.663  1.34500000e+03 
850.627  1.36500000e+03 
850.591  1.38100000e+03 
850.555  1.28200000e+03 
850.518  1.35400000e+03 
850.482  1.36200000e+03 
850.446  1.31500000e+03 
850.410  1.36500000e+03 
850.374  1.31100000e+03 
850.338  1.34200000e+03 
850.302  1.35800000e+03 
850.266  1.39800000e+03 
850.230  1.33900000e+03 
850.194  1.39500000e+03 
850.158  1.27300000e+03 
850.122  1.37700000e+03 
850.085  1.26500000e+03 
850.049  1.27900000e+03 
850.013  1.29700000e+03 
849.977  1.28300000e+03 
849.941  1.25400000e+03 
849.905  1.32700000e+03 
849.869  1.30000000e+03 
849.833  1.15900000e+03 
849.797  1.28100000e+03 
849.761  9.93000000e+02 
849.725  1.04800000e+03 
849.689  1.06600000e+03 
849.653  8.88000000e+02 
849.616  9.63000000e+02 
849.580  9.11000000e+02 
849.544  7.46000000e+02 
849.508  6.25000000e+02 
849.472  3.42000000e+02 
849.436  0.00000000e+00 
849.400  0.00000000e+00 

[ L= 1 R= 5 ]
BEcenter= 854.000 
BEwidth= -9.200  
Excitation= 1486.600
Time_p_channel= 1000.000
Size= 256
858.600  1.64800000e+03 
858.564  1.57900000e+03 
858.528  1.71000000e+03 
858.492  1.71500000e+03 
858.456  1.71900000e+03 
858.420  1.73200000e+03 
858.384  1.74400000e+03 
858.347  1.70100000e+03 
858.311  1.70100000e+03 
858.275  1.78500000e+03 
858.239  1.81100000e+03 
858.203  1.78500000e+03 
858.167  1.74500000e+03 
858.131  1.75800000e+03 
858.095  1.75700000e+03 
858.059  1.77800000e+03 
858.023  1.73700000e+03 
857.987  1.73000000e+03 
857.951  1.73100000e+03 
857.915  1.82000000e+03 
857.878  1.74400000e+03 
857.842  1.83900000e+03 
857.806  1.74700000e+03 
857.770  1.82100000e+03 
857.734  1.83000000e+03 
857.698  1.81600000e+03 
857.662  1.77500000e+03 
857.626  1.86400000e+03 
857.590  1.90300000e+03 
857.554  1.88800000e+03 
857.518  1.92100000e+03 
857.482  1.84400000e+03 
857.445  1.82900000e+03 
857.409  1.88200000e+03 
857.373  1.87900000e+03 
857.337  1.87300000e+03 
857.301  1.93400000e+03 
857.265  1.97400000e+03 
857.229  1.91300000e+03 
857.193  1.88700000e+03 
857.157  1.97000000e+03 
857.121  1.93800000e+03 
857.085  1.95000000e+03 
857.049  1.94600000e+03 
857.013  1.94100000e+03 
856.976  2.01400000e+03 
856.940  2.01900000e+03 
856.904  2.02100000e+03 
856.868  2.00400000e+03 
856.832  1.93100000e+03 
856.796  1.99100000e+03 
856.760  2.04400000e+03 
856.724  1.92100000e+03 
856.688  2.02100000e+03 
856.652  2.05500000e+03 
856.616  2.02800000e+03 
856.580  2.01000000e+03 
856.544  2.08000000e+03 
856.507  2.06800000e+03 
856.471  1.94800000e+03 
856.435  2.00300000e+03 
856.399  2.12400000e+03 
856.363  1.98500000e+03 
856.327  2.02800000e+03 
856.291  2.00900000e+03 
856.255  2.04300000e+03 
856.219  1.96800000e+03 
856.183  1.97300000e+03 
856.147  2.03000000e+03 
856.111  2.03200000e+03 
856.075  2.07800000e+03 
856.038  2.03500000e+03 
856.002  2.06100000e+03 
855.966  2.11600000e+03 
855.930  2.14800000e+03 
855.894  2.14400000e+03 
855.858  2.11700000e+03 
855.822  2.15000000e+03 
855.786  2.09800000e+03 
855.750  2.13400000e+03 
855.714  2.16100000e+03 
855.678  2.23100000e+03 
855.642  2.08200000e+03 
855.605  2.29300000e+03 
855.569  2.23800000e+03 
855.533  2.13200000e+03 
855.497  2.19700000e+03 
855.461  2.13400000e+03 
855.425  2.14700000e+03 
855.389  2.18000000e+03 
855.353  2.15800000e+03 
855.317  2.11700000e+03 
855.281  2.15400000e+03 
855.245  2.08800000e+03 
855.209  2.12700000e+03 
855.173  2.06100000e+03 
855.136  2.00300000e+03 
855.100  2.06200000e+03 
855.064  1.97800000e+03 
855.028  2.10700000e+03 
854.992  2.11300000e+03 
854.956  2.06700000e+03 
854.920  2.05900000e+03 
854.884  2.08700000e+03 
854.848  2.08000000e+03 
854.812  2.00600000e+03 
854.776  2.07500000e+03 
854.740  2.04400000e+03 
854.704  1.95700000e+03 
854.667  2.12900000e+03 
854.631  2.00900000e+03 
854.595  1.94800000e+03 
854.559  1.89700000e+03 
854.523  1.93100000e+03 
854.487  2.00100000e+03 
854.451  1.86800000e+03 
854.415  1.93100000e+03 
854.379  1.91200000e+03 
854.343  1.96800000e+03 
854.307  1.98900000e+03 
854.271  1.90600000e+03 
854.235  1.92200000e+03 
854.198  1.86200000e+03 
854.162  1.88700000e+03 
854.126  1.92900000e+03 
854.090  1.95500000e+03 
854.054  1.97300000e+03 
854.018  1.92800000e+03 
853.982  1.94400000e+03 
853.946  1.94500000e+03 
853.910  1.86200000e+03 
853.874  1.88300000e+03 
853.838  1.86700000e+03 
853.802  1.84900000e+03 
853.765  1.79700000e+03 
853.729  1.87500000e+03 
853.693  1.79500000e+03 
853.657  1.81600000e+03 
853.621  1.91000000e+03 
853.585  1.91700000e+03 
853.549  1.90100000e+03 
853.513  1.90500000e+03 
853.477  1.81900000e+03 
853.441  1.86100000e+03 
853.405  1.74900000e+03 
853.369  1.81000000e+03 
853.333  1.85200000e+03 
853.296  1.77500000e+03 
853.260  1.80000000e+03 
853.224  1.74000000e+03 
853.188  1.79300000e+03 
853.152  1.79700000e+03 
853.116  1.89500000e+03 
853.080  1.76900000e+03 
853.044  1.74900000e+03 
853.008  1.83300000e+03 
852.972  1.76800000e+03 
852.936  1.75800000e+03 
852.900  1.73600000e+03 
852.864  1.71600000e+03 
852.827  1.69000000e+03 
852.791  1.66800000e+03 
852.755  1.73800000e+03 
852.719  1.71300000e+03 
852.683  1.74600000e+03 
852.647  1.70500000e+03 
852.611  1.70700000e+03 
852.575  1.76100000e+03 
852.539  1.67700000e+03 
852.503  1.60600000e+03 
852.467  1.63100000e+03 
852.431  1.67500000e+03 
852.395  1.61600000e+03 
852.358  1.73400000e+03 
852.322  1.65600000e+03 
852.286  1.64000000e+03 
852.250  1.71900000e+03 
852.214  1.73000000e+03 
852.178  1.72400000e+03 
852.142  1.73600000e+03 
852.106  1.75700000e+03 
852.070  1.62300000e+03 
852.034  1.72200000e+03 
851.998  1.64800000e+03 
851.962  1.63200000e+03 
851.925  1.65000000e+03 
851.889  1.66000000e+03 
851.853  1.58800000e+03 
851.817  1.59000000e+03 
851.781  1.66100000e+03 
851.745  1.59800000e+03 
851.709  1.63100000e+03 
851.673  1.66400000e+03 
851.637  1.67600000e+03 
851.601  1.58900000e+03 
851.565  1.56300000e+03 
851.529  1.47300000e+03 
851.493  1.59900000e+03 
851.456  1.52100000e+03 
851.420  1.52700000e+03 
851.384  1.54900000e+03 
851.348  1.48300000e+03 
851.312  1.52400000e+03 
851.276  1.50500000e+03 
851.240  1.51000000e+03 
851.204  1.48700000e+03 
851.168  1.43500000e+03 
851.132  1.51900000e+03 
851.096  1.43400000e+03 
851.060  1.39100000e+03 
851.024  1.40700000e+03 
850.987  1.35600000e+03 
850.951  1.41600000e+03 
850.915  1.42700000e+03 
850.879  1.38100000e+03 
850.843  1.43200000e+03 
850.807  1.37000000e+03 
850.771  1.38200000e+03 
850.735  1.42100000e+03 
850.699  1.44800000e+03 
850.663  1.36500000e+03 
850.627  1.37600000e+03 
850.591  1.32700000e+03 
850.555  1.35800000e+03 
850.518  1.32200000e+03 
850.482  1.37800000e+03 
850.446  1.33900000e+03 
850.410  1.40400000e+03 
850.374  1.33300000e+03 
850.338  1.34600000e+03 
850.302  1.28200000e+03 
850.266  1.30900000e+03 
850.230  1.31900000e+03 
850.194  1.32700000e+03 
850.158  1.34000000e+03 
850.122  1.29800000e+03 
850.085  1.25900000e+03 
850.049  1.28200000e+03 
850.013  1.29700000e+03 
849.977  1.27000000e+03 
849.941  1.32500000e+03 
849.905  1.27600000e+03 
849.869  1.25700000e+03 
849.833  1.20700000e+03 
849.797  1.20200000e+03 
849.761  9.78000000e+02 
849.725  1.02000000e+03 
849.689  1.04000000e+03 
849.653  8.15000000e+02 
849.616  9.44000000e+02 
849.580  9.84000000e+02 
849.544  7.44000000e+02 
849.508  6.39000000e+02 
849.472  3.24000000e+02 
849.436  0.00000000e+00 
849.400  0.00000000e+00 

[ L= 1 R= 6 ]
BEcenter= 854.000 
BEwidth= -9.200  
Excitation= 1486.600
Time_p_channel= 1000.000
Size= 256
858.600  1.59400000e+03 
858.564  1.64000000e+03 
858.528  1.68400000e+03 
858.492  1.67900000e+03 
858.456  1.75600000e+03 
858.420  1.71500000e+03 
858.384  1.66000000e+03 
858.347  1.73000000e+03 
858.311  1.74200000e+03 
858.275  1.67600000e+03 
858.239  1.77700000e+03 
858.203  1.70900000e+03 
858.167  1.67400000e+03 
858.131  1.78700000e+03 
858.095  1.78700000e+03 
858.059  1.80200000e+03 
858.023  1.79300000e+03 
857.987  1.70400000e+03 
857.951  1.71500000e+03 
857.915  1.78800000e+03 
857.878  1.83900000e+03 
857.842  1.77000000e+03 
857.806  1.73300000e+03 
857.770  1.84500000e+03 
857.734  1.82400000e+03 
857.698  1.84000000e+03 
857.662  1.78300000e+03 
857.626  1.82900000e+03 
857.590  1.79900000e+03 
857.554  1.85200000e+03 
857.518  1.90100000e+03 
857.482  1.84300000e+03 
857.445  1.91000000e+03 
857.409  1.89100000e+03 
857.373  1.99000000e+03 
857.337  1.93200000e+03 
857.301  1.82500000e+03 
857.265  1.87900000e+03 
857.229  1.87000000e+03 
857.193  1.99800000e+03 
857.157  1.91500000e+03 
857.121  1.90700000e+03 
857.085  1.92200000e+03 
857.049  1.97200000e+03 
857.013  1.92300000e+03 
856.976  1.97500000e+03 
856.940  1.95000000e+03 
856.904  2.00100000e+03 
856.868  2.01300000e+03 
856.832  1.91600000e+03 
856.796  2.02100000e+03 
856.760  2.10300000e+03 
856.724  2.08600000e+03 
856.688  2.03700000e+03 
856.652  2.07100000e+03 
856.616  2.08500000e+03 
856.580  2.04900000e+03 
856.544  2.05000000e+03 
856.507  2.00800000e+03 
856.471  2.18900000e+03 
856.435  2.04500000e+03 
856.399  2.07900000e+03 
856.363  1.87500000e+03 
856.327  2.09300000e+03 
856.291  2.02200000e+03 
856.255  2.07800000e+03 
856.219  2.02800000e+03 
856.183  1.97600000e+03 
856.147  2.09000000e+03 
856.111  2.05800000e+03 
856.075  2.14600000e+03 
856.038  2.05200000e+03 
856.002  2.06700000e+03 
855.966  2.16500000e+03 
855.930  2.26100000e+03 
855.894  2.11200000e+03 
855.858  2.15700000e+03 
855.822  2.11000000e+03 
855.786  2.13600000e+03 
855.750  2.13200000e+03 
855.714  2.08300000e+03 
855.678  2.13700000e+03 
855.642  2.19600000e+03 
855.605  2.11800000e+03 
855.569  2.25000000e+03 
855.533  2.16500000e+03 
855.497  2.20300000e+03 
855.461  2.20200000e+03 
855.425  2.08000000e+03 
855.389  2.11600000e+03 
855.353  2.25700000e+03 
855.317  2.06000000e+03 
855.281  2.18800000e+03 
855.245  2.04400000e+03 
855.209  2.08800000e+03 
855.173  2.09900000e+03 
855.136  1.93200000e+03 
855.100  2.08500000e+03 
855.064  2.05800000e+03 
855.028  2.11400000e+03 
854.992  2.01700000e+03 
854.956  2.05900000e+03 
854.920  2.07700000e+03 
854.884  2.04700000e+03 
854.848  2.04000000e+03 
854.812  1.99700000e+03 
854.776  2.05600000e+03 
854.740  1.91300000e+03 
854.704  1.91100000e+03 
854.667  2.08600000e+03 
854.631  1.95600000e+03 
854.595  1.94400000e+03 
854.559  2.00800000e+03 
854.523  1.97700000e+03 
854.487  1.90300000e+03 
854.451  1.91600000e+03 
854.415  1.89900000e+03 
854.379  1.89700000e+03 
854.343  1.91000000e+03 
854.307  1.86800000e+03 
854.271  1.83400000e+03 
854.235  1.94500000e+03 
854.198  1.90300000e+03 
854.162  1.88800000e+03 
854.126  1.84200000e+03 
854.090  1.98200000e+03 
854.054  1.87800000e+03 
854.018  1.85800000e+03 
853.982  1.91700000e+03 
853.946  1.87000000e+03 
853.910  1.88100000e+03 
853.874  1.86100000e+03 
853.838  1.82400000e+03 
853.802  1.90600000e+03 
853.765  1.84300000e+03 
853.729  1.86000000e+03 
853.693  1.90300000e+03 
853.657  1.80700000e+03 
853.621  1.82100000e+03 
853.585  1.92500000e+03 
853.549  1.80300000e+03 
853.513  1.78900000e+03 
853.477  1.77500000e+03 
853.441  1.87200000e+03 
853.405  1.80900000e+03 
853.369  1.83500000e+03 
853.333  1.84000000e+03 
853.296  1.88900000e+03 
853.260  1.83100000e+03 
853.224  1.74300000e+03 
853.188  1.81600000e+03 
853.152  1.76200000e+03 
853.116  1.77800000e+03 
853.080  1.74300000e+03 
853.044  1.75700000e+03 
853.008  1.74900000e+03 
852.972  1.67500000e+03 
852.936  1.74200000e+03 
852.900  1.80300000e+03 
852.864  1.71600000e+03 
852.827  1.69200000e+03 
852.791  1.67200000e+03 
852.755  1.65800000e+03 
852.719  1.75300000e+03 
852.683  1.66000000e+03 
852.647  1.68800000e+03 
852.611  1.74900000e+03 
852.575  1.72000000e+03 
852.539  1.64600000e+03 
852.503  1.66400000e+03 
852.467  1.68200000e+03 
852.431  1.59800000e+03 
852.395  1.63900000e+03 
852.358  1.69500000e+03 
852.322  1.64400000e+03 
852.286  1.63200000e+03 
852.250  1.69900000e+03 
852.214  1.71100000e+03 
852.178  1.69100000e+03 
852.142  1.68500000e+03 
852.106  1.69500000e+03 
852.070  1.65600000e+03 
852.034  1.70300000e+03 
851.998  1.62500000e+03 
851.962  1.60600000e+03 
851.925  1.67600000e+03 
851.889  1.68600000e+03 
851.853  1.69600000e+03 
851.817  1.67300000e+03 
851.781  1.62400000e+03 
851.745  1.56000000e+03 
851.709  1.60100000e+03 
851.673  1.59600000e+03 
851.637  1.57700000e+03 
851.601  1.52700000e+03 
851.565  1.55900000e+03 
851.529  1.54100000e+03 
851.493  1.55800000e+03 
851.456  1.53700000e+03 
851.420  1.52800000e+03 
851.384  1.50300000e+03 
851.348  1.50500000e+03 
851.312  1.57200000e+03 
851.276  1.50200000e+03 
851.240  1.49100000e+03 
851.204  1.48200000e+03 
851.168  1.48000000e+03 
851.132  1.45000000e+03 
851.096  1.49400000e+03 
851.060  1.46200000e+03 
851.024  1.46100000e+03 
850.987  1.44500000e+03 
850.951  1.47600000e+03 
850.915  1.40800000e+03 
850.879  1.36500000e+03 
850.843  1.40600000e+03 
850.807  1.41700000e+03 
850.771  1.41200000e+03 
850.735  1.40900000e+03 
850.699  1.36800000e+03 
850.663  1.38700000e+03 
850.627  1.36000000e+03 
850.591  1.36900000e+03 
850.555  1.33300000e+03 
850.518  1.36800000e+03 
850.482  1.32600000e+03 
850.446  1.31400000e+03 
850.410  1.34000000e+03 
850.374  1.32900000e+03 
850.338  1.35900000e+03 
850.302  1.31000000e+03 
850.266  1.37400000e+03 
850.230  1.33500000e+03 
850.194  1.35400000e+03 
850.158  1.32200000e+03 
850.122  1.28500000e+03 
850.085  1.35100000e+03 
850.049  1.32800000e+03 
850.013  1.28200000e+03 
849.977  1.29800000e+03 
849.941  1.26500000e+03 
849.905  1.22300000e+03 
849.869  1.25100000e+03 
849.833  1.16600000e+03 
849.797  1.25900000e+03 
849.761  9.20000000e+02 
849.725  1.04000000e+03 
849.689  1.06700000e+03 
849.653  8.60000000e+02 
849.616  9.77000000e+02 
849.580  8.93000000e+02 
849.544  6.83000000e+02 
849.508  6.12000000e+02 
849.472  3.22000000e+02 
849.436  0.00000000e+00 
849.400  0.00000000e+00 

[ L= 1 R= 7 ]
BEcenter= 854.000 
BEwidth= -9.200  
Excitation= 1486.600
Time_p_channel= 1000.000
Size= 256
858.600  1.56000000e+03 
858.564  1.67100000e+03 
858.528  1.64500000e+03 
858.492  1.69800000e+03 
858.456  1.74300000e+03 
858.420  1.72800000e+03 
858.384  1.71000000e+03 
858.347  1.74100000e+03 
858.311  1.68700000e+03 
858.275  1.74300000e+03 
858.239  1.75800000e+03 
858.203  1.82900000e+03 
858.167  1.74900000e+03 
858.131  1.79500000e+03 
858.095  1.75800000e+03 
858.059  1.76500000e+03 
858.023  1.73700000e+03 
857.987  1.74500000e+03 
857.951  1.79700000e+03 
857.915  1.81400000e+03 
857.878  1.73300000e+03 
857.842  1.74700000e+03 
857.806  1.89000000e+03 
857.770  1.77000000e+03 
857.734  1.82700000e+03 
857.698  1.85500000e+03 
857.662  1.83600000e+03 
857.626  1.84300000e+03 
857.590  1.93700000e+03 
857.554  1.92700000e+03 
857.518  1.89300000e+03 
857.482  1.87800000e+03 
857.445  1.78700000e+03 
857.409  1.90500000e+03 
857.373  1.89600000e+03 
857.337  1.94000000e+03 
857.301  1.89900000e+03 
857.265  1.87200000e+03 
857.229  1.96200000e+03 
857.193  1.91700000e+03 
857.157  1.94300000e+03 
857.121  1.93900000e+03 
857.085  1.99000000e+03 
857.049  1.97500000e+03 
857.013  2.01700000e+03 
856.976  1.94500000e+03 
856.940  2.03200000e+03 
856.904  1.94000000e+03 
856.868  2.10300000e+03 
856.832  1.95900000e+03 
856.796  2.01100000e+03 
856.760  2.01400000e+03 
856.724  2.02400000e+03 
856.688  2.07200000e+03 
856.652  1.99500000e+03 
856.616  2.03100000e+03 
856.580  1.99100000e+03 
856.544  2.09200000e+03 
856.507  2.06000000e+03 
856.471  2.00900000e+03 
856.435  1.97700000e+03 
856.399  1.99600000e+03 
856.363  2.05700000e+03 
856.327  2.00100000e+03 
856.291  1.99800000e+03 
856.255  2.03100000e+03 
856.219  2.04100000e+03 
856.183  2.03600000e+03 
856.147  2.11600000e+03 
856.111  2.08800000e+03 
856.075  2.02900000e+03 
856.038  2.12900000e+03 
856.002  2.02600000e+03 
855.966  2.09000000e+03 
855.930  2.06900000e+03 
855.894  2.19600000e+03 
855.858  2.16100000e+03 
855.822  2.17200000e+03 
855.786  2.13500000e+03 
855.750  2.09400000e+03 
855.714  2.13600000e+03 
855.678  2.14900000e+03 
855.642  2.16200000e+03 
855.605  2.12800000e+03 
855.569  2.11900000e+03 
855.533  2.11300000e+03 
855.497  2.21000000e+03 
855.461  2.15400000e+03 
855.425  2.12500000e+03 
855.389  2.14400000e+03 
855.353  2.08800000e+03 
855.317  2.12500000e+03 
855.281  2.12500000e+03 
855.245  1.99500000e+03 
855.209  2.15700000e+03 
855.173  2.04600000e+03 
855.136  2.04800000e+03 
855.100  2.04100000e+03 
855.064  2.00700000e+03 
855.028  2.08300000e+03 
854.992  1.99800000e+03 
854.956  2.12200000e+03 
854.920  2.02400000e+03 
854.884  1.97600000e+03 
854.848  2.03500000e+03 
854.812  2.03200000e+03 
854.776  2.00600000e+03 
854.740  2.02400000e+03 
854.704  1.93800000e+03 
854.667  2.02600000e+03 
854.631  1.89000000e+03 
854.595  1.97300000e+03 
854.559  1.95900000e+03 
854.523  1.97400000e+03 
854.487  1.88400000e+03 
854.451  1.95800000e+03 
854.415  1.92100000e+03 
854.379  1.83900000e+03 
854.343  1.82900000e+03 
854.307  1.88900000e+03 
854.271  1.83800000e+03 
854.235  1.95600000e+03 
854.198  1.91700000e+03 
854.162  2.03600000e+03 
854.126  1.93000000e+03 
854.090  1.91700000e+03 
854.054  1.85000000e+03 
854.018  1.90500000e+03 
853.982  1.92200000e+03 
853.946  1.76700000e+03 
853.910  1.91100000e+03 
853.874  1.87800000e+03 
853.838  1.88300000e+03 
853.802  1.79700000e+03 
853.765  1.89300000e+03 
853.729  1.88000000e+03 
853.693  1.84600000e+03 
853.657  1.95100000e+03 
853.621  1.93300000e+03 
853.585  1.87300000e+03 
853.549  1.81700000e+03 
853.513  1.79900000e+03 
853.477  1.89500000e+03 
853.441  1.81100000e+03 
853.405  1.80000000e+03 
853.369  1.84500000e+03 
853.333  1.76800000e+03 
853.296  1.90000000e+03 
853.260  1.79200000e+03 
853.224  1.83300000e+03 
853.188  1.78400000e+03 
853.152  1.75700000e+03 
853.116  1.76000000e+03 
853.080  1.79400000e+03 
853.044  1.81100000e+03 
853.008  1.77600000e+03 
852.972  1.73200000e+03 
852.936  1.75500000e+03 
852.900  1.73200000e+03 
852.864  1.76700000e+03 
852.827  1.71400000e+03 
852.791  1.67000000e+03 
852.755  1.78100000e+03 
852.719  1.67700000e+03 
852.683  1.61300000e+03 
852.647  1.78600000e+03 
852.611  1.65300000e+03 
852.575  1.65800000e+03 
852.539  1.64600000e+03 
852.503  1.78800000e+03 
852.467  1.69500000e+03 
852.431  1.69400000e+03 
852.395  1.63700000e+03 
852.358  1.68000000e+03 
852.322  1.65300000e+03 
852.286  1.64300000e+03 
852.250  1.65200000e+03 
852.214  1.66100000e+03 
852.178  1.70500000e+03 
852.142  1.66700000e+03 
852.106  1.68300000e+03 
852.070  1.65400000e+03 
852.034  1.67700000e+03 
851.998  1.72000000e+03 
851.962  1.68500000e+03 
851.925  1.71900000e+03 
851.889  1.66600000e+03 
851.853  1.65100000e+03 
851.817  1.57200000e+03 
851.781  1.63200000e+03 
851.745  1.56100000e+03 
851.709  1.57600000e+03 
851.673  1.64600000e+03 
851.637  1.54700000e+03 
851.601  1.60300000e+03 
851.565  1.61200000e+03 
851.529  1.50100000e+03 
851.493  1.55900000e+03 
851.456  1.54600000e+03 
851.420  1.64400000e+03 
851.384  1.53800000e+03 
851.348  1.48400000e+03 
851.312  1.53300000e+03 
851.276  1.50200000e+03 
851.240  1.50700000e+03 
851.204  1.48700000e+03 
851.168  1.49600000e+03 
851.132  1.48000000e+03 
851.096  1.38700000e+03 
851.060  1.49800000e+03 
851.024  1.40600000e+03 
850.987  1.46400000e+03 
850.951  1.45100000e+03 
850.915  1.38500000e+03 
850.879  1.43600000e+03 
850.843  1.37800000e+03 
850.807  1.35700000e+03 
850.771  1.41700000e+03 
850.735  1.39300000e+03 
850.699  1.38800000e+03 
850.663  1.33800000e+03 
850.627  1.36100000e+03 
850.591  1.30000000e+03 
850.555  1.34900000e+03 
850.518  1.33800000e+03 
850.482  1.36400000e+03 
850.446  1.38400000e+03 
850.410  1.33200000e+03 
850.374  1.35000000e+03 
850.338  1.33700000e+03 
850.302  1.34800000e+03 
850.266  1.32300000e+03 
850.230  1.35500000e+03 
850.194  1.29600000e+03 
850.158  1.25700000e+03 
850.122  1.30800000e+03 
850.085  1.25900000e+03 
850.049  1.28100000e+03 
850.013  1.31800000e+03 
849.977  1.26500000e+03 
849.941  1.34600000e+03 
849.905  1.25100000e+03 
849.869  1.25000000e+03 
849.833  1.12700000e+03 
849.797  1.24000000e+03 
849.761  9.71000000e+02 
849.725  9.84000000e+02 
849.689  1.08900000e+03 
849.653  9.00000000e+02 
849.616  9.65000000e+02 
849.580  9.94000000e+02 
849.544  6.53000000e+02 
849.508  6.41000000e+02 
849.472  3.55000000e+02 
849.436  0.00000000e+00 
849.400  0.00000000e+00 

[ L= 1 R= 8 ]
BEcenter= 854.000 
BEwidth= -9.200  
Excitation= 1486.600
Time_p_channel= 1000.000
Size= 256
858.600  1.58400000e+03 
858.564  1.57500000e+03 
858.528  1.61600000e+03 
858.492  1.71800000e+03 
858.456  1.66800000e+03 
858.420  1.74400000e+03 
858.384  1.78000000e+03 
858.347  1.69200000e+03 
858.311  1.74500000e+03 
858.275  1.71100000e+03 
858.239  1.80000000e+03 
858.203  1.76900000e+03 
858.167  1.78400000e+03 
858.131  1.70000000e+03 
858.095  1.71600000e+03 
858.059  1.76600000e+03 
858.023  1.76500000e+03 
857.987  1.76500000e+03 
857.951  1.77300000e+03 
857.915  1.75000000e+03 
857.878  1.73300000e+03 
857.842  1.82300000e+03 
857.806  1.84100000e+03 
857.770  1.72400000e+03 
857.734  1.84700000e+03 
857.698  1.85400000e+03 
857.662  1.81000000e+03 
857.626  1.79400000e+03 
857.590  1.77700000e+03 
857.554  1.78900000e+03 
857.518  1.85700000e+03 
857.482  1.83800000e+03 
857.445  1.83600000e+03 
857.409  1.88900000e+03 
857.373  1.83000000e+03 
857.337  1.86900000e+03 
857.301  1.93100000e+03 
857.265  1.88400000e+03 
857.229  1.96900000e+03 
857.193  1.82900000e+03 
857.157  1.97400000e+03 
857.121  1.93400000e+03 
857.085  2.01100000e+03 
857.049  1.98000000e+03 
857.013  1.90900000e+03 
856.976  1.94800000e+03 
856.940  2.02800000e+03 
856.904  1.99600000e+03 
856.868  2.02000000e+03 
856.832  2.03000000e+03 
856.796  2.03700000e+03 
856.760  1.96500000e+03 
856.724  1.97500000e+03 
856.688  1.95800000e+03 
856.652  2.01000000e+03 
856.616  1.99400000e+03 
856.580  2.08300000e+03 
856.544  2.07300000e+03 
856.507  2.03800000e+03 
856.471  2.08700000e+03 
856.435  1.99600000e+03 
856.399  1.97700000e+03 
856.363  2.06600000e+03 
856.327  2.03600000e+03 
856.291  2.03700000e+03 
856.255  2.00900000e+03 
856.219  2.01100000e+03 
856.183  1.99900000e+03 
856.147  1.98300000e+03 
856.111  2.00400000e+03 
856.075  2.08200000e+03 
856.038  2.13100000e+03 
856.002  2.09900000e+03 
855.966  2.16900000e+03 
855.930  2.09400000e+03 
855.894  2.15900000e+03 
855.858  2.18900000e+03 
855.822  2.00400000e+03 
855.786  2.15800000e+03 
855.750  2.13100000e+03 
855.714  2.17300000e+03 
855.678  2.18000000e+03 
855.642  2.14700000e+03 
855.605  2.08700000e+03 
855.569  2.25500000e+03 
855.533  2.21500000e+03 
855.497  2.20100000e+03 
855.461  2.16600000e+03 
855.425  2.19200000e+03 
855.389  2.19300000e+03 
855.353  2.17500000e+03 
855.317  2.08200000e+03 
855.281  2.06600000e+03 
855.245  2.11000000e+03 
855.209  2.09200000e+03 
855.173  2.04300000e+03 
855.136  2.13200000e+03 
855.100  2.05800000e+03 
855.064  2.03900000e+03 
855.028  1.96800000e+03 
854.992  2.02900000e+03 
854.956  2.09600000e+03 
854.920  1.98300000e+03 
854.884  2.01100000e+03 
854.848  2.07200000e+03 
854.812  2.02400000e+03 
854.776  1.98500000e+03 
854.740  2.06100000e+03 
854.704  1.96700000e+03 
854.667  2.03600000e+03 
854.631  1.90300000e+03 
854.595  1.94600000e+03 
854.559  1.94700000e+03 
854.523  1.85400000e+03 
854.487  1.88200000e+03 
854.451  1.89400000e+03 
854.415  1.96300000e+03 
854.379  1.94900000e+03 
854.343  1.87400000e+03 
854.307  1.89500000e+03 
854.271  1.92800000e+03 
854.235  1.89700000e+03 
854.198  1.84600000e+03 
854.162  1.99500000e+03 
854.126  1.94400000e+03 
854.090  1.89700000e+03 
854.054  1.88200000e+03 
854.018  1.81100000e+03 
853.982  1.94200000e+03 
853.946  1.88000000e+03 
853.910  1.87700000e+03 
853.874  1.89000000e+03 
853.838  1.89600000e+03 
853.802  1.86400000e+03 
853.765  1.85600000e+03 
853.729  1.73700000e+03 
853.693  1.83100000e+03 
853.657  1.88000000e+03 
853.621  1.93300000e+03 
853.585  1.80000000e+03 
853.549  1.78000000e+03 
853.513  1.87800000e+03 
853.477  1.80900000e+03 
853.441  1.85400000e+03 
853.405  1.83300000e+03 
853.369  1.81800000e+03 
853.333  1.84600000e+03 
853.296  1.73000000e+03 
853.260  1.79000000e+03 
853.224  1.80300000e+03 
853.188  1.75500000e+03 
853.152  1.74700000e+03 
853.116  1.78400000e+03 
853.080  1.73400000e+03 
853.044  1.68700000e+03 
853.008  1.72900000e+03 
852.972  1.71800000e+03 
852.936  1.78300000e+03 
852.900  1.71500000e+03 
852.864  1.67300000e+03 
852.827  1.75600000e+03 
852.791  1.83500000e+03 
852.755  1.65700000e+03 
852.719  1.75600000e+03 
852.683  1.69800000e+03 
852.647  1.74200000e+03 
852.611  1.66600000e+03 
852.575  1.73200000e+03 
852.539  1.65100000e+03 
852.503  1.68700000e+03 
852.467  1.66200000e+03 
852.431  1.69500000e+03 
852.395  1.60500000e+03 
852.358  1.72600000e+03 
852.322  1.60200000e+03 
852.286  1.65900000e+03 
852.250  1.65800000e+03 
852.214  1.67900000e+03 
852.178  1.60200000e+03 
852.142  1.66300000e+03 
852.106  1.70600000e+03 
852.070  1.70000000e+03 
852.034  1.63100000e+03 
851.998  1.65300000e+03 
851.962  1.66100000e+03 
851.925  1.64600000e+03 
851.889  1.66800000e+03 
851.853  1.62800000e+03 
851.817  1.65200000e+03 
851.781  1.67900000e+03 
851.745  1.60000000e+03 
851.709  1.64200000e+03 
851.673  1.49200000e+03 
851.637  1.51800000e+03 
851.601  1.56300000e+03 
851.565  1.59900000e+03 
851.529  1.56100000e+03 
851.493  1.50700000e+03 
851.456  1.51900000e+03 
851.420  1.45100000e+03 
851.384  1.48700000e+03 
851.348  1.56700000e+03 
851.312  1.52500000e+03 
851.276  1.54900000e+03 
851.240  1.46100000e+03 
851.204  1.45500000e+03 
851.168  1.44100000e+03 
851.132  1.45100000e+03 
851.096  1.51500000e+03 
851.060  1.45100000e+03 
851.024  1.39800000e+03 
850.987  1.36800000e+03 
850.951  1.52600000e+03 
850.915  1.42000000e+03 
850.879  1.42000000e+03 
850.843  1.39700000e+03 
850.807  1.42700000e+03 
850.771  1.38200000e+03 
850.735  1.33200000e+03 
850.699  1.39400000e+03 
850.663  1.37500000e+03 
850.627  1.37100000e+03 
850.591  1.34300000e+03 
850.555  1.29900000e+03 
850.518  1.38200000e+03 
850.482  1.36400000e+03 
850.446  1.31600000e+03 
850.410  1.34600000e+03 
850.374  1.31900000e+03 
850.338  1.31600000e+03 
850.302  1.37800000e+03 
850.266  1.37200000e+03 
850.230  1.35700000e+03 
850.194  1.27700000e+03 
850.158  1.22700000e+03 
850.122  1.33700000e+03 
850.085  1.23800000e+03 
850.049  1.35600000e+03 
850.013  1.30500000e+03 
849.977  1.28700000e+03 
849.941  1.24900000e+03 
849.905  1.26200000e+03 
849.869  1.29200000e+03 
849.833  1.09800000e+03 
849.797  1.26400000e+03 
849.761  9.93000000e+02 
849.725  1.01600000e+03 
849.689  1.08500000e+03 
849.653  8.07000000e+02 
849.616  9.88000000e+02 
849.580  9.64000000e+02 
849.544  7.52000000e+02 
849.508  6.37000000e+02 
849.472  3.07000000e+02 
849.436  0.00000000e+00 
849.400  0.00000000e+00 

[ L= 1 R= 9 ]
BEcenter= 854.000 
BEwidth= -9.200  
Excitation= 1486.600
Time_p_channel= 1000.000
Size= 256
858.600  1.64100000e+03 
858.564  1.64700000e+03 
858.528  1.61900000e+03 
858.492  1.69400000e+03 
858.456  1.72000000e+03 
858.420  1.66000000e+03 
858.384  1.75400000e+03 
858.347  1.74100000e+03 
858.311  1.70900000e+03 
858.275  1.73300000e+03 
858.239  1.73100000e+03 
858.203  1.71500000e+03 
858.167  1.73600000e+03 
858.131  1.65600000e+03 
858.095  1.73500000e+03 
858.059  1.74700000e+03 
858.023  1.68400000e+03 
857.987  1.83800000e+03 
857.951  1.73700000e+03 
857.915  1.77800000e+03 
857.878  1.79200000e+03 
857.842  1.73300000e+03 
857.806  1.77500000e+03 
857.770  1.76700000e+03 
857.734  1.85400000e+03 
857.698  1.83800000e+03 
857.662  1.88100000e+03 
857.626  1.86300000e+03 
857.590  1.81500000e+03 
857.554  1.83600000e+03 
857.518  1.85100000e+03 
857.482  1.81200000e+03 
857.445  1.86600000e+03 
857.409  1.87300000e+03 
857.373  1.82800000e+03 
857.337  1.90400000e+03 
857.301  1.89200000e+03 
857.265  1.94400000e+03 
857.229  1.84500000e+03 
857.193  1.85700000e+03 
857.157  1.88900000e+03 
857.121  1.86000000e+03 
857.085  1.94300000e+03 
857.049  1.97000000e+03 
857.013  1.89500000e+03 
856.976  2.02100000e+03 
856.940  2.02400000e+03 
856.904  1.95500000e+03 
856.868  2.05500000e+03 
856.832  1.99500000e+03 
856.796  1.98600000e+03 
856.760  2.00900000e+03 
856.724  2.07000000e+03 
856.688  2.03200000e+03 
856.652  2.06500000e+03 
856.616  2.07100000e+03 
856.580  1.98900000e+03 
856.544  2.01900000e+03 
856.507  2.04300000e+03 
856.471  1.95400000e+03 
856.435  1.88000000e+03 
856.399  2.07400000e+03 
856.363  2.14000000e+03 
856.327  1.99700000e+03 
856.291  2.01700000e+03 
856.255  2.06200000e+03 
856.219  1.98900000e+03 
856.183  2.02000000e+03 
856.147  2.08200000e+03 
856.111  2.07700000e+03 
856.075  2.01000000e+03 
856.038  2.06100000e+03 
856.002  2.02800000e+03 
855.966  2.06700000e+03 
855.930  2.09000000e+03 
855.894  2.10700000e+03 
855.858  2.21500000e+03 
855.822  2.10700000e+03 
855.786  2.12900000e+03 
855.750  2.08100000e+03 
855.714  2.13000000e+03 
855.678  2.14000000e+03 
855.642  2.16300000e+03 
855.605  2.17000000e+03 
855.569  2.17100000e+03 
855.533  2.17100000e+03 
855.497  2.20000000e+03 
855.461  2.13000000e+03 
855.425  2.14900000e+03 
855.389  2.07200000e+03 
855.353  2.11900000e+03 
855.317  2.08300000e+03 
855.281  2.16600000e+03 
855.245  2.07100000e+03 
855.209  2.09100000e+03 
855.173  2.06900000e+03 
855.136  2.05600000e+03 
855.100  2.05600000e+03 
855.064  2.04400000e+03 
855.028  2.08400000e+03 
854.992  2.09000000e+03 
854.956  2.07700000e+03 
854.920  2.09500000e+03 
854.884  2.07000000e+03 
854.848  2.02400000e+03 
854.812  1.97400000e+03 
854.776  1.94500000e+03 
854.740  2.03700000e+03 
854.704  2.05100000e+03 
854.667  2.00700000e+03 
854.631  1.93900000e+03 
854.595  1.97200000e+03 
854.559  1.94200000e+03 
854.523  1.95300000e+03 
854.487  1.92400000e+03 
854.451  1.92100000e+03 
854.415  1.97200000e+03 
854.379  1.87600000e+03 
854.343  1.95300000e+03 
854.307  1.90100000e+03 
854.271  1.91000000e+03 
854.235  1.94600000e+03 
854.198  1.95800000e+03 
854.162  1.91000000e+03 
854.126  1.82700000e+03 
854.090  1.85100000e+03 
854.054  1.93700000e+03 
854.018  1.91800000e+03 
853.982  1.90200000e+03 
853.946  1.88100000e+03 
853.910  1.81400000e+03 
853.874  1.75300000e+03 
853.838  1.90100000e+03 
853.802  1.79500000e+03 
853.765  1.80600000e+03 
853.729  1.88100000e+03 
853.693  1.89900000e+03 
853.657  1.81400000e+03 
853.621  1.76500000e+03 
853.585  1.85000000e+03 
853.549  1.82900000e+03 
853.513  1.90500000e+03 
853.477  1.81100000e+03 
853.441  1.84400000e+03 
853.405  1.80600000e+03 
853.369  1.81000000e+03 
853.333  1.76000000e+03 
853.296  1.73000000e+03 
853.260  1.78200000e+03 
853.224  1.73200000e+03 
853.188  1.80400000e+03 
853.152  1.76600000e+03 
853.116  1.78500000e+03 
853.080  1.78600000e+03 
853.044  1.71800000e+03 
853.008  1.73900000e+03 
852.972  1.73800000e+03 
852.936  1.74000000e+03 
852.900  1.77800000e+03 
852.864  1.76300000e+03 
852.827  1.72200000e+03 
852.791  1.72300000e+03 
852.755  1.76500000e+03 
852.719  1.72500000e+03 
852.683  1.68000000e+03 
852.647  1.69800000e+03 
852.611  1.70300000e+03 
852.575  1.67100000e+03 
852.539  1.68800000e+03 
852.503  1.67400000e+03 
852.467  1.67300000e+03 
852.431  1.64700000e+03 
852.395  1.73700000e+03 
852.358  1.65300000e+03 
852.322  1.62500000e+03 
852.286  1.59000000e+03 
852.250  1.64100000e+03 
852.214  1.58600000e+03 
852.178  1.69700000e+03 
852.142  1.70800000e+03 
852.106  1.64800000e+03 
852.070  1.67000000e+03 
852.034  1.63600000e+03 
851.998  1.65800000e+03 
851.962  1.63700000e+03 
851.925  1.72100000e+03 
851.889  1.69000000e+03 
851.853  1.62400000e+03 
851.817  1.61100000e+03 
851.781  1.58700000e+03 
851.745  1.54400000e+03 
851.709  1.66600000e+03 
851.673  1.53200000e+03 
851.637  1.55300000e+03 
851.601  1.59200000e+03 
851.565  1.56700000e+03 
851.529  1.61100000e+03 
851.493  1.56400000e+03 
851.456  1.47500000e+03 
851.420  1.53900000e+03 
851.384  1.52500000e+03 
851.348  1.49300000e+03 
851.312  1.46700000e+03 
851.276  1.48600000e+03 
851.240  1.52100000e+03 
851.204  1.46100000e+03 
851.168  1.42900000e+03 
851.132  1.50700000e+03 
851.096  1.38300000e+03 
851.060  1.43200000e+03 
851.024  1.44500000e+03 
850.987  1.36100000e+03 
850.951  1.49300000e+03 
850.915  1.47500000e+03 
850.879  1.39000000e+03 
850.843  1.43600000e+03 
850.807  1.37700000e+03 
850.771  1.36800000e+03 
850.735  1.44000000e+03 
850.699  1.42000000e+03 
850.663  1.41800000e+03 
850.627  1.38300000e+03 
850.591  1.36400000e+03 
850.555  1.35300000e+03 
850.518  1.34500000e+03 
850.482  1.32300000e+03 
850.446  1.25200000e+03 
850.410  1.37500000e+03 
850.374  1.33300000e+03 
850.338  1.30400000e+03 
850.302  1.30500000e+03 
850.266  1.31400000e+03 
850.230  1.29200000e+03 
850.194  1.25900000e+03 
850.158  1.29600000e+03 
850.122  1.27500000e+03 
850.085  1.28200000e+03 
850.049  1.28300000e+03 
850.013  1.31400000e+03 
849.977  1.20600000e+03 
849.941  1.25000000e+03 
849.905  1.25200000e+03 
849.869  1.30800000e+03 
849.833  1.08700000e+03 
849.797  1.28300000e+03 
849.761  9.76000000e+02 
849.725  9.89000000e+02 
849.689  1.04500000e+03 
849.653  7.92000000e+02 
849.616  9.93000000e+02 
849.580  8.90000000e+02 
849.544  6.94000000e+02 
849.508  6.52000000e+02 
849.472  3.32000000e+02 
849.436  0.00000000e+00 
849.400  0.00000000e+00 

[ L= 1 R= 10 ]
BEcenter= 854.000 
BEwidth= -9.200  
Excitation= 1486.600
Time_p_channel= 1000.000
Size= 256
858.600  1.58900000e+03 
858.564  1.70700000e+03 
858.528  1.62000000e+03 
858.492  1.71900000e+03 
858.456  1.64700000e+03 
858.420  1.60600000e+03 
858.384  1.68100000e+03 
858.347  1.64900000e+03 
858.311  1.76100000e+03 
858.275  1.72300000e+03 
858.239  1.73800000e+03 
858.203  1.65900000e+03 
858.167  1.77000000e+03 
858.131  1.69400000e+03 
858.095  1.73500000e+03 
858.059  1.70600000e+03 
858.023  1.80500000e+03 
857.987  1.73100000e+03 
857.951  1.77800000e+03 
857.915  1.77500000e+03 
857.878  1.68500000e+03 
857.842  1.81900000e+03 
857.806  1.76200000e+03 
857.770  1.83500000e+03 
857.734  1.81000000e+03 
857.698  1.78100000e+03 
857.662  1.84800000e+03 
857.626  1.81000000e+03 
857.590  1.82400000e+03 
857.554  1.84500000e+03 
857.518  1.81100000e+03 
857.482  1.81200000e+03 
857.445  1.77000000e+03 
857.409  1.82900000e+03 
857.373  1.88400000e+03 
857.337  1.94700000e+03 
857.301  1.83400000e+03 
857.265  1.94300000e+03 
857.229  1.93000000e+03 
857.193  1.91400000e+03 
857.157  1.93400000e+03 
857.121  1.93400000e+03 
857.085  1.92300000e+03 
857.049  1.94900000e+03 
857.013  1.90800000e+03 
856.976  2.00300000e+03 
856.940  2.03300000e+03 
856.904  1.97700000e+03 
856.868  1.98700000e+03 
856.832  1.91000000e+03 
856.796  1.97900000e+03 
856.760  2.11300000e+03 
856.724  1.96700000e+03 
856.688  2.00100000e+03 
856.652  2.00700000e+03 
856.616  1.99800000e+03 
856.580  2.01400000e+03 
856.544  2.08100000e+03 
856.507  2.08800000e+03 
856.471  1.99800000e+03 
856.435  2.09600000e+03 
856.399  1.95700000e+03 
856.363  2.00100000e+03 
856.327  1.94900000e+03 
856.291  2.12300000e+03 
856.255  2.07500000e+03 
856.219  1.96500000e+03 
856.183  2.07300000e+03 
856.147  2.00300000e+03 
856.111  2.13100000e+03 
856.075  2.02200000e+03 
856.038  2.14600000e+03 
856.002  2.16800000e+03 
855.966  2.09300000e+03 
855.930  2.12400000e+03 
855.894  2.07600000e+03 
855.858  2.08000000e+03 
855.822  2.15200000e+03 
855.786  2.14500000e+03 
855.750  2.17700000e+03 
855.714  2.16700000e+03 
855.678  2.13900000e+03 
855.642  2.16200000e+03 
855.605  2.27200000e+03 
855.569  2.13600000e+03 
855.533  2.12300000e+03 
855.497  2.07600000e+03 
855.461  2.12400000e+03 
855.425  2.08500000e+03 
855.389  2.07900000e+03 
855.353  2.09800000e+03 
855.317  2.18800000e+03 
855.281  2.06300000e+03 
855.245  2.03600000e+03 
855.209  2.00000000e+03 
855.173  2.13800000e+03 
855.136  2.03700000e+03 
855.100  2.06900000e+03 
855.064  1.97900000e+03 
855.028  2.04600000e+03 
854.992  2.05700000e+03 
854.956  1.95400000e+03 
854.920  1.99600000e+03 
854.884  2.03100000e+03 
854.848  1.98600000e+03 
854.812  1.97200000e+03 
854.776  1.98800000e+03 
854.740  2.00700000e+03 
854.704  1.93200000e+03 
854.667  1.95100000e+03 
854.631  1.89400000e+03 
854.595  1.91400000e+03 
854.559  2.00800000e+03 
854.523  1.99100000e+03 
854.487  1.98700000e+03 
854.451  1.90100000e+03 
854.415  1.92500000e+03 
854.379  1.97700000e+03 
854.343  1.92400000e+03 
854.307  1.85900000e+03 
854.271  2.00700000e+03 
854.235  1.92600000e+03 
854.198  1.82500000e+03 
854.162  1.94000000e+03 
854.126  1.96700000e+03 
854.090  1.99700000e+03 
854.054  1.90800000e+03 
854.018  1.86500000e+03 
853.982  1.83000000e+03 
853.946  1.85900000e+03 
853.910  1.79700000e+03 
853.874  1.76000000e+03 
853.838  1.87400000e+03 
853.802  1.81700000e+03 
853.765  1.85100000e+03 
853.729  1.80400000e+03 
853.693  1.86300000e+03 
853.657  1.83400000e+03 
853.621  1.82200000e+03 
853.585  1.77900000e+03 
853.549  1.80000000e+03 
853.513  1.81700000e+03 
853.477  1.81800000e+03 
853.441  1.85800000e+03 
853.405  1.82600000e+03 
853.369  1.81400000e+03 
853.333  1.76700000e+03 
853.296  1.76900000e+03 
853.260  1.76900000e+03 
853.224  1.79400000e+03 
853.188  1.83300000e+03 
853.152  1.72000000e+03 
853.116  1.78500000e+03 
853.080  1.85800000e+03 
853.044  1.76100000e+03 
853.008  1.73900000e+03 
852.972  1.70800000e+03 
852.936  1.80800000e+03 
852.900  1.65800000e+03 
852.864  1.72200000e+03 
852.827  1.74600000e+03 
852.791  1.70200000e+03 
852.755  1.67700000e+03 
852.719  1.69400000e+03 
852.683  1.72000000e+03 
852.647  1.60000000e+03 
852.611  1.61400000e+03 
852.575  1.60800000e+03 
852.539  1.59400000e+03 
852.503  1.65900000e+03 
852.467  1.65300000e+03 
852.431  1.66400000e+03 
852.395  1.66300000e+03 
852.358  1.69000000e+03 
852.322  1.63500000e+03 
852.286  1.69000000e+03 
852.250  1.68300000e+03 
852.214  1.69600000e+03 
852.178  1.64500000e+03 
852.142  1.61700000e+03 
852.106  1.67600000e+03 
852.070  1.69300000e+03 
852.034  1.63100000e+03 
851.998  1.58000000e+03 
851.962  1.68700000e+03 
851.925  1.61100000e+03 
851.889  1.64800000e+03 
851.853  1.62100000e+03 
851.817  1.60600000e+03 
851.781  1.61700000e+03 
851.745  1.58700000e+03 
851.709  1.62500000e+03 
851.673  1.59700000e+03 
851.637  1.57500000e+03 
851.601  1.47300000e+03 
851.565  1.60600000e+03 
851.529  1.53700000e+03 
851.493  1.48900000e+03 
851.456  1.51500000e+03 
851.420  1.57600000e+03 
851.384  1.47600000e+03 
851.348  1.46100000e+03 
851.312  1.50900000e+03 
851.276  1.46800000e+03 
851.240  1.50700000e+03 
851.204  1.48800000e+03 
851.168  1.52500000e+03 
851.132  1.56800000e+03 
851.096  1.51600000e+03 
851.060  1.41100000e+03 
851.024  1.44900000e+03 
850.987  1.43900000e+03 
850.951  1.48700000e+03 
850.915  1.45300000e+03 
850.879  1.33800000e+03 
850.843  1.39500000e+03 
850.807  1.34500000e+03 
850.771  1.39200000e+03 
850.735  1.40900000e+03 
850.699  1.30000000e+03 
850.663  1.31600000e+03 
850.627  1.39500000e+03 
850.591  1.34200000e+03 
850.555  1.26800000e+03 
850.518  1.38500000e+03 
850.482  1.28700000e+03 
850.446  1.30900000e+03 
850.410  1.31100000e+03 
850.374  1.39300000e+03 
850.338  1.30000000e+03 
850.302  1.32400000e+03 
850.266  1.24800000e+03 
850.230  1.31100000e+03 
850.194  1.21400000e+03 
850.158  1.23800000e+03 
850.122  1.30100000e+03 
850.085  1.23300000e+03 
850.049  1.24900000e+03 
850.013  1.25700000e+03 
849.977  1.27400000e+03 
849.941  1.31500000e+03 
849.905  1.24800000e+03 
849.869  1.25400000e+03 
849.833  1.12600000e+03 
849.797  1.24900000e+03 
849.761  1.03100000e+03 
849.725  9.84000000e+02 
849.689  1.14900000e+03 
849.653  8.46000000e+02 
849.616  9.32000000e+02 
849.580  9.50000000e+02 
849.544  6.95000000e+02 
849.508  5.94000000e+02 
849.472  3.49000000e+02 
849.436  0.00000000e+00 
849.400  0.00000000e+00 

