EXPERIMENT FILE
Version = 2

[ Experiment Parameters ]
Experiment Description= Quick View 
Number_of_Regions_in_Experiment= 1 

Original_File_name= C:\alexesca\data\Noise]\Quick112514.xps 
Instrument= HP ESCA West
Date= 11-25-2014
Time=  12:07:54

[ Layer Parameters ]
Layer_Type= XPS

[ Region 1 Parameters ]
Region_Description = Quick_sweep_0.5eVstep_x1           
BEcenter(eV) = 575.000000
BEwidth(eV) = 162.000000
BEstep(eV) = 0.503125
Dwell_Time(sec) = 1.000000
N_o_scans = 1  
N_o_Channels = 322  
Scan_mode = 0  (DITHERED)

[ L= 1 R= 1 ]
BEcenter= 575.000 
BEwidth= -161.503
Excitation= 1486.600
Time_p_channel= 18.286  
Size= 322
655.752  1.75600000e+03 
655.248  1.81000000e+03 
654.745  1.78500000e+03 
654.242  1.86400000e+03 
653.739  1.79800000e+03 
653.236  1.82500000e+03 
652.733  1.86000000e+03 
652.230  1.85700000e+03 
651.727  1.86800000e+03 
651.223  1.83400000e+03 
650.720  1.79600000e+03 
650.217  1.76300000e+03 
649.714  1.87200000e+03 
649.211  1.80200000e+03 
648.708  1.77800000e+03 
648.205  1.77600000e+03 
647.702  1.85300000e+03 
647.198  1.80000000e+03 
646.695  1.81400000e+03 
646.192  1.74400000e+03 
645.689  1.78900000e+03 
645.186  1.77800000e+03 
644.683  1.78700000e+03 
644.180  1.77700000e+03 
643.677  1.71900000e+03 
643.173  1.75300000e+03 
642.670  1.76700000e+03 
642.167  1.81400000e+03 
641.664  1.75800000e+03 
641.161  1.74500000e+03 
640.658  1.81200000e+03 
640.155  1.76000000e+03 
639.652  1.75900000e+03 
639.148  1.73500000e+03 
638.645  1.80200000e+03 
638.142  1.73600000e+03 
637.639  1.72200000e+03 
637.136  1.76200000e+03 
636.633  1.71100000e+03 
636.130  1.76400000e+03 
635.627  1.68400000e+03 
635.123  1.72600000e+03 
634.620  1.85500000e+03 
634.117  1.78500000e+03 
633.614  1.76600000e+03 
633.111  1.77900000e+03 
632.608  1.71500000e+03 
632.105  1.81100000e+03 
631.602  1.74400000e+03 
631.098  1.72100000e+03 
630.595  1.74500000e+03 
630.092  1.69500000e+03 
629.589  1.77600000e+03 
629.086  1.68600000e+03 
628.583  1.78000000e+03 
628.080  1.65700000e+03 
627.577  1.73000000e+03 
627.073  1.77300000e+03 
626.570  1.72400000e+03 
626.067  1.74400000e+03 
625.564  1.76600000e+03 
625.061  1.67000000e+03 
624.558  1.69400000e+03 
624.055  1.76800000e+03 
623.552  1.73800000e+03 
623.048  1.77200000e+03 
622.545  1.66100000e+03 
622.042  1.76000000e+03 
621.539  1.68200000e+03 
621.036  1.71800000e+03 
620.533  1.71700000e+03 
620.030  1.70200000e+03 
619.527  1.76600000e+03 
619.023  1.75200000e+03 
618.520  1.72600000e+03 
618.017  1.70300000e+03 
617.514  1.78500000e+03 
617.011  1.69700000e+03 
616.508  1.74300000e+03 
616.005  1.78900000e+03 
615.502  1.74100000e+03 
614.998  1.80400000e+03 
614.495  1.76600000e+03 
613.992  1.70300000e+03 
613.489  1.70600000e+03 
612.986  1.79600000e+03 
612.483  1.78000000e+03 
611.980  1.69100000e+03 
611.477  1.79500000e+03 
610.973  1.69000000e+03 
610.470  1.80200000e+03 
609.967  1.79800000e+03 
609.464  1.75400000e+03 
608.961  1.78400000e+03 
608.458  1.70200000e+03 
607.955  1.71100000e+03 
607.452  1.75000000e+03 
606.948  1.76700000e+03 
606.445  1.76000000e+03 
605.942  1.74400000e+03 
605.439  1.77600000e+03 
604.936  1.78900000e+03 
604.433  1.76900000e+03 
603.930  1.76200000e+03 
603.427  1.74900000e+03 
602.923  1.67300000e+03 
602.420  1.76200000e+03 
601.917  1.70200000e+03 
601.414  1.72900000e+03 
600.911  1.84300000e+03 
600.408  1.69000000e+03 
599.905  1.82700000e+03 
599.402  1.69100000e+03 
598.898  1.81000000e+03 
598.395  1.77600000e+03 
597.892  1.68300000e+03 
597.389  1.68800000e+03 
596.886  1.79600000e+03 
596.383  1.75800000e+03 
595.880  1.76900000e+03 
595.377  1.76600000e+03 
594.873  1.79200000e+03 
594.370  1.83100000e+03 
593.867  1.73400000e+03 
593.364  1.72900000e+03 
592.861  1.79600000e+03 
592.358  1.67400000e+03 
591.855  1.73900000e+03 
591.352  1.78800000e+03 
590.848  1.80900000e+03 
590.345  1.81900000e+03 
589.842  1.72600000e+03 
589.339  1.69300000e+03 
588.836  1.76500000e+03 
588.333  1.78300000e+03 
587.830  1.82700000e+03 
587.327  1.80300000e+03 
586.823  1.79600000e+03 
586.320  1.74400000e+03 
585.817  1.72600000e+03 
585.314  1.76000000e+03 
584.811  1.77800000e+03 
584.308  1.76200000e+03 
583.805  1.78700000e+03 
583.302  1.86400000e+03 
582.798  1.81100000e+03 
582.295  1.78700000e+03 
581.792  1.73200000e+03 
581.289  1.83900000e+03 
580.786  1.83900000e+03 
580.283  1.91000000e+03 
579.780  1.80500000e+03 
579.277  1.78800000e+03 
578.773  1.73100000e+03 
578.270  1.75100000e+03 
577.767  1.75400000e+03 
577.264  1.80200000e+03 
576.761  1.82500000e+03 
576.258  1.73300000e+03 
575.755  1.74900000e+03 
575.252  1.73000000e+03 
574.748  1.69300000e+03 
574.245  1.71600000e+03 
573.742  1.71800000e+03 
573.239  1.72800000e+03 
572.736  1.70000000e+03 
572.233  1.72400000e+03 
571.730  1.67200000e+03 
571.227  1.69900000e+03 
570.723  1.66300000e+03 
570.220  1.73400000e+03 
569.717  1.80900000e+03 
569.214  1.66800000e+03 
568.711  1.69100000e+03 
568.208  1.74800000e+03 
567.705  1.77300000e+03 
567.202  1.65800000e+03 
566.698  1.66200000e+03 
566.195  1.73100000e+03 
565.692  1.74600000e+03 
565.189  1.73700000e+03 
564.686  1.65500000e+03 
564.183  1.70300000e+03 
563.680  1.63800000e+03 
563.177  1.72000000e+03 
562.673  1.66900000e+03 
562.170  1.71100000e+03 
561.667  1.74900000e+03 
561.164  1.67100000e+03 
560.661  1.77900000e+03 
560.158  1.74700000e+03 
559.655  1.69100000e+03 
559.152  1.76300000e+03 
558.648  1.69100000e+03 
558.145  1.77700000e+03 
557.642  1.80400000e+03 
557.139  1.81700000e+03 
556.636  1.83500000e+03 
556.133  1.86100000e+03 
555.630  1.86500000e+03 
555.127  1.87600000e+03 
554.623  1.90500000e+03 
554.120  1.86400000e+03 
553.617  1.72900000e+03 
553.114  1.85500000e+03 
552.611  1.79600000e+03 
552.108  1.68400000e+03 
551.605  1.62400000e+03 
551.102  1.62600000e+03 
550.598  1.58600000e+03 
550.095  1.63000000e+03 
549.592  1.57200000e+03 
549.089  1.59100000e+03 
548.586  1.52500000e+03 
548.083  1.52300000e+03 
547.580  1.54500000e+03 
547.077  1.49000000e+03 
546.573  1.44300000e+03 
546.070  1.49000000e+03 
545.567  1.49700000e+03 
545.064  1.50200000e+03 
544.561  1.55200000e+03 
544.058  1.53300000e+03 
543.555  1.47100000e+03 
543.052  1.54400000e+03 
542.548  1.67200000e+03 
542.045  1.81000000e+03 
541.542  2.14800000e+03 
541.039  2.33000000e+03 
540.536  2.42100000e+03 
540.033  2.36800000e+03 
539.530  2.13300000e+03 
539.027  1.97700000e+03 
538.523  1.75200000e+03 
538.020  1.50200000e+03 
537.517  1.40800000e+03 
537.014  1.46100000e+03 
536.511  1.42800000e+03 
536.008  1.40000000e+03 
535.505  1.40200000e+03 
535.002  1.38300000e+03 
534.498  1.34300000e+03 
533.995  1.43400000e+03 
533.492  1.44700000e+03 
532.989  1.44000000e+03 
532.486  1.37600000e+03 
531.983  1.43800000e+03 
531.480  1.48000000e+03 
530.977  1.42800000e+03 
530.473  1.49300000e+03 
529.970  1.44800000e+03 
529.467  1.40000000e+03 
528.964  1.37400000e+03 
528.461  1.46500000e+03 
527.958  1.50100000e+03 
527.455  1.38500000e+03 
526.952  1.42800000e+03 
526.448  1.41100000e+03 
525.945  1.45600000e+03 
525.442  1.38800000e+03 
524.939  1.38400000e+03 
524.436  1.32100000e+03 
523.933  1.44100000e+03 
523.430  1.38200000e+03 
522.927  1.45600000e+03 
522.423  1.43500000e+03 
521.920  1.43900000e+03 
521.417  1.36100000e+03 
520.914  1.42800000e+03 
520.411  1.44600000e+03 
519.908  1.45100000e+03 
519.405  1.45900000e+03 
518.902  1.40900000e+03 
518.398  1.39300000e+03 
517.895  1.43800000e+03 
517.392  1.34900000e+03 
516.889  1.38200000e+03 
516.386  1.44200000e+03 
515.883  1.39800000e+03 
515.380  1.41300000e+03 
514.877  1.40900000e+03 
514.373  1.48700000e+03 
513.870  1.45300000e+03 
513.367  1.53400000e+03 
512.864  1.43500000e+03 
512.361  1.44500000e+03 
511.858  1.44400000e+03 
511.355  1.44100000e+03 
510.852  1.39300000e+03 
510.348  1.39000000e+03 
509.845  1.44100000e+03 
509.342  1.40200000e+03 
508.839  1.49500000e+03 
508.336  1.48600000e+03 
507.833  1.51300000e+03 
507.330  1.45000000e+03 
506.827  1.51000000e+03 
506.323  1.52100000e+03 
505.820  1.50300000e+03 
505.317  1.51700000e+03 
504.814  1.41100000e+03 
504.311  1.48900000e+03 
503.808  1.48100000e+03 
503.305  1.36500000e+03 
502.802  1.47100000e+03 
502.298  1.40600000e+03 
501.795  1.42600000e+03 
501.292  1.39700000e+03 
500.789  1.47500000e+03 
500.286  1.39200000e+03 
499.783  1.40200000e+03 
499.280  1.41600000e+03 
498.777  1.40900000e+03 
498.273  1.41100000e+03 
497.770  1.43300000e+03 
497.267  1.42900000e+03 
496.764  1.39700000e+03 
496.261  1.45300000e+03 
495.758  1.40800000e+03 
495.255  1.43700000e+03 
494.752  1.43100000e+03 
494.248  1.43700000e+03 

