[ Experiment Parameters ]
Experiment Description= <none> 
Number_of_Regions_in_Experiment= 1 

Original_File_name= c:\alexesca\data\97072401.xps 
Instrument= ESCA-West
Date= 07-24-1997
Time=  11:26:25

[ Region 1 Parameters ]
Region_Description = Ni 2p 3/2 test                     
BEcenter(eV) = 852.300000
BEwidth(eV) = 20.000000
BEstep(eV) = 0.251563
Dwell_Time(sec) = 1.000000
N_o_scans = 1  
N_o_Channels = 78  
Excitation_Energy = -680726532331181667736682623581735092224.000000  
Scan_mode = 0  (DITHERED)

[ Region 1 Curve ]
BEcenter= 852.300 
BEwidth= -19.213 
Excitation= 1486.600
Time_p_channel= 36.571  
Size= 78
861.906  3.60000000e+02 
861.657  3.21000000e+02 
861.407  3.35000000e+02 
861.158  3.93000000e+02 
860.908  2.91000000e+02 
860.659  3.53000000e+02 
860.409  3.28000000e+02 
860.160  3.47000000e+02 
859.910  3.29000000e+02 
859.661  3.42000000e+02 
859.411  3.45000000e+02 
859.162  3.40000000e+02 
858.912  3.86000000e+02 
858.663  3.04000000e+02 
858.413  3.28000000e+02 
858.164  3.44000000e+02 
857.914  3.64000000e+02 
857.665  3.36000000e+02 
857.415  3.49000000e+02 
857.166  3.57000000e+02 
856.916  3.58000000e+02 
856.667  3.59000000e+02 
856.417  3.40000000e+02 
856.168  3.40000000e+02 
855.918  3.01000000e+02 
855.668  3.61000000e+02 
855.419  3.05000000e+02 
855.169  3.35000000e+02 
854.920  3.35000000e+02 
854.670  3.60000000e+02 
854.421  3.50000000e+02 
854.171  3.31000000e+02 
853.922  3.23000000e+02 
853.672  3.19000000e+02 
853.423  3.60000000e+02 
853.173  3.45000000e+02 
852.924  3.60000000e+02 
852.674  3.36000000e+02 
852.425  3.37000000e+02 
852.175  3.49000000e+02 
851.926  3.53000000e+02 
851.676  3.37000000e+02 
851.427  3.19000000e+02 
851.177  3.40000000e+02 
850.928  3.32000000e+02 
850.678  3.48000000e+02 
850.429  3.29000000e+02 
850.179  3.36000000e+02 
849.930  3.43000000e+02 
849.680  3.58000000e+02 
849.431  3.53000000e+02 
849.181  3.45000000e+02 
848.932  2.95000000e+02 
848.682  3.51000000e+02 
848.432  3.51000000e+02 
848.183  3.43000000e+02 
847.933  3.47000000e+02 
847.684  3.31000000e+02 
847.434  3.39000000e+02 
847.185  3.59000000e+02 
846.935  3.38000000e+02 
846.686  3.43000000e+02 
846.436  3.72000000e+02 
846.187  3.14000000e+02 
845.937  3.28000000e+02 
845.688  3.69000000e+02 
845.438  3.47000000e+02 
845.189  3.31000000e+02 
844.939  3.01000000e+02 
844.690  3.37000000e+02 
844.440  3.35000000e+02 
844.191  3.50000000e+02 
843.941  3.61000000e+02 
843.692  3.32000000e+02 
843.442  3.27000000e+02 
843.193  3.41000000e+02 
842.943  3.15000000e+02 
842.694  3.23000000e+02 
