[ Experiment Parameters ]
Experiment Description= <none> 
Number_of_Regions_in_Experiment= 1 

Original_File_name= c:\alexesca\data\97071004.xps 
Instrument= ESCA-West
Date= 07-10-1997
Time=  08:06:50

[ Region 1 Parameters ]
Region_Description = au 4f dithered                     
BEcenter(eV) = 85.000000
BEwidth(eV) = 8.000000
BEstep(eV) = 0.072656
Dwell_Time(sec) = 0.500000
N_o_scans = 1  
N_o_Channels = 110  
Excitation_Energy = 0.000000  
Scan_mode = 0  (DITHERED)

[ Region 1 Curve ]
BEcenter= 85.000  
BEwidth= -7.899  
Excitation= 1486.600
Time_p_channel= 384.000 
Size= 110
88.950   1.72300000e+03 
88.877   1.90100000e+03 
88.805   2.03800000e+03 
88.732   2.09400000e+03 
88.660   2.13500000e+03 
88.587   2.37800000e+03 
88.515   2.34900000e+03 
88.442   2.31300000e+03 
88.370   2.40700000e+03 
88.297   2.47400000e+03 
88.225   2.38400000e+03 
88.153   2.44000000e+03 
88.080   2.44100000e+03 
88.008   2.45800000e+03 
87.935   2.50100000e+03 
87.863   2.45900000e+03 
87.790   2.55800000e+03 
87.718   2.58100000e+03 
87.645   2.50900000e+03 
87.573   2.53400000e+03 
87.500   2.48100000e+03 
87.428   2.44300000e+03 
87.355   2.35000000e+03 
87.283   2.43700000e+03 
87.210   2.40400000e+03 
87.138   2.19100000e+03 
87.065   2.19800000e+03 
86.993   1.99600000e+03 
86.920   1.86100000e+03 
86.848   1.72900000e+03 
86.776   1.63300000e+03 
86.703   1.50000000e+03 
86.631   1.32400000e+03 
86.558   1.20300000e+03 
86.486   1.04800000e+03 
86.413   1.02800000e+03 
86.341   9.05000000e+02 
86.268   9.63000000e+02 
86.196   9.27000000e+02 
86.123   8.89000000e+02 
86.051   9.18000000e+02 
85.978   9.81000000e+02 
85.906   1.02600000e+03 
85.833   1.06000000e+03 
85.761   1.15700000e+03 
85.688   1.28300000e+03 
85.616   1.32900000e+03 
85.544   1.49000000e+03 
85.471   1.60900000e+03 
85.399   1.74900000e+03 
85.326   1.95400000e+03 
85.254   2.10400000e+03 
85.181   2.43800000e+03 
85.109   2.57900000e+03 
85.036   2.83200000e+03 
84.964   2.99800000e+03 
84.891   3.14600000e+03 
84.819   3.31100000e+03 
84.746   3.48900000e+03 
84.674   3.43800000e+03 
84.601   3.44800000e+03 
84.529   3.26300000e+03 
84.456   3.24500000e+03 
84.384   3.05700000e+03 
84.312   2.80000000e+03 
84.239   2.67800000e+03 
84.167   2.45900000e+03 
84.094   2.22900000e+03 
84.022   2.16000000e+03 
83.949   2.03200000e+03 
83.877   2.01100000e+03 
83.804   2.04700000e+03 
83.732   2.11700000e+03 
83.659   2.16700000e+03 
83.587   2.20600000e+03 
83.514   2.29700000e+03 
83.442   2.31600000e+03 
83.369   2.20100000e+03 
83.297   2.17400000e+03 
83.224   1.98500000e+03 
83.152   1.80300000e+03 
83.080   1.68800000e+03 
83.007   1.48800000e+03 
82.935   1.22300000e+03 
82.862   1.06500000e+03 
82.790   9.42000000e+02 
82.717   8.45000000e+02 
82.645   7.72000000e+02 
82.572   6.20000000e+02 
82.500   5.65000000e+02 
82.427   4.89000000e+02 
82.355   4.90000000e+02 
82.282   4.24000000e+02 
82.210   3.96000000e+02 
82.137   3.89000000e+02 
82.065   3.86000000e+02 
81.992   3.28000000e+02 
81.920   3.20000000e+02 
81.847   3.29000000e+02 
81.775   2.84000000e+02 
81.703   2.97000000e+02 
81.630   2.86000000e+02 
81.558   2.94000000e+02 
81.485   3.12000000e+02 
81.413   2.91000000e+02 
81.340   3.11000000e+02 
81.268   2.62000000e+02 
81.195   2.91000000e+02 
81.123   2.69000000e+02 
81.050   2.63000000e+02 
