[ Experiment Parameters ]
Experiment Description= <none> 
Number_of_Regions_in_Experiment= 1 

Original_File_name= c:\alexesca\data\97072502.xps 
Instrument= ESCA-West
Date= 07-25-1997
Time=  12:22:22

[ Region 1 Parameters ]
Region_Description = Ni/Cu peak test                    
BEcenter(eV) = 930.000000
BEwidth(eV) = 20.000000
BEstep(eV) = 0.035938
Dwell_Time(sec) = 1.500000
N_o_scans = 2  
N_o_Channels = 557  
Excitation_Energy = -808170618903861931580439296336572973056.000000  
Scan_mode = 0  (DITHERED)

[ Region 1 Curve ]
BEcenter= 930.000 
BEwidth= -19.977 
Excitation= 1486.600
Time_p_channel= 768.000 
Size= 557
939.988  7.26100000e+03 
939.952  7.06500000e+03 
939.916  7.03800000e+03 
939.880  6.96600000e+03 
939.845  7.11500000e+03 
939.809  7.14800000e+03 
939.773  7.15100000e+03 
939.737  7.28600000e+03 
939.701  7.18500000e+03 
939.665  7.16200000e+03 
939.629  7.35500000e+03 
939.593  7.11900000e+03 
939.557  7.09400000e+03 
939.521  7.29200000e+03 
939.485  7.15100000e+03 
939.449  7.23100000e+03 
939.413  7.14600000e+03 
939.377  7.18700000e+03 
939.342  7.18200000e+03 
939.306  7.08700000e+03 
939.270  7.31400000e+03 
939.234  7.18500000e+03 
939.198  7.14800000e+03 
939.162  6.98600000e+03 
939.126  7.03100000e+03 
939.090  7.14200000e+03 
939.054  7.05100000e+03 
939.018  7.33800000e+03 
938.982  7.29400000e+03 
938.946  7.16600000e+03 
938.910  7.07700000e+03 
938.874  7.08600000e+03 
938.839  7.01700000e+03 
938.803  7.17200000e+03 
938.767  7.11600000e+03 
938.731  7.35500000e+03 
938.695  7.14900000e+03 
938.659  7.28900000e+03 
938.623  7.13000000e+03 
938.587  7.15000000e+03 
938.551  7.18000000e+03 
938.515  7.13300000e+03 
938.479  7.07900000e+03 
938.443  7.14900000e+03 
938.407  7.21100000e+03 
938.371  7.06300000e+03 
938.336  7.31600000e+03 
938.300  7.19700000e+03 
938.264  7.09600000e+03 
938.228  7.09900000e+03 
938.192  7.12100000e+03 
938.156  7.10100000e+03 
938.120  7.15400000e+03 
938.084  7.02800000e+03 
938.048  7.09200000e+03 
938.012  7.29200000e+03 
937.976  7.11400000e+03 
937.940  7.15000000e+03 
937.904  7.19900000e+03 
937.868  7.15400000e+03 
937.833  7.10500000e+03 
937.797  7.28500000e+03 
937.761  7.18800000e+03 
937.725  7.37400000e+03 
937.689  7.16200000e+03 
937.653  7.13300000e+03 
937.617  7.13200000e+03 
937.581  7.19700000e+03 
937.545  7.21900000e+03 
937.509  6.98200000e+03 
937.473  7.35400000e+03 
937.437  7.29300000e+03 
937.401  7.15600000e+03 
937.365  7.15500000e+03 
937.330  7.15700000e+03 
937.294  7.15100000e+03 
937.258  7.13100000e+03 
937.222  7.22200000e+03 
937.186  7.15500000e+03 
937.150  7.07900000e+03 
937.114  7.13900000e+03 
937.078  7.26700000e+03 
937.042  7.10900000e+03 
937.006  7.08600000e+03 
936.970  7.04100000e+03 
936.934  7.28100000e+03 
936.898  7.19100000e+03 
936.862  7.01400000e+03 
936.827  7.23200000e+03 
936.791  7.13000000e+03 
936.755  7.08200000e+03 
936.719  7.14600000e+03 
936.683  7.08600000e+03 
936.647  7.24400000e+03 
936.611  7.05700000e+03 
936.575  7.22800000e+03 
936.539  7.18800000e+03 
936.503  6.98500000e+03 
936.467  7.17900000e+03 
936.431  7.15800000e+03 
936.395  7.24400000e+03 
936.359  7.10900000e+03 
936.324  7.03000000e+03 
936.288  7.15300000e+03 
936.252  7.17600000e+03 
936.216  7.14900000e+03 
936.180  7.13100000e+03 
936.144  7.13700000e+03 
936.108  7.16600000e+03 
936.072  7.14500000e+03 
936.036  7.06700000e+03 
936.000  6.97900000e+03 
935.964  7.10000000e+03 
935.928  7.09300000e+03 
935.892  7.09900000e+03 
935.856  7.05200000e+03 
935.821  7.17600000e+03 
935.785  7.19100000e+03 
935.749  7.12400000e+03 
935.713  7.05700000e+03 
935.677  7.05900000e+03 
935.641  7.14500000e+03 
935.605  7.21400000e+03 
935.569  7.12300000e+03 
935.533  7.25400000e+03 
935.497  7.12900000e+03 
935.461  7.18800000e+03 
935.425  7.18200000e+03 
935.389  7.10300000e+03 
935.353  7.07300000e+03 
935.318  7.19900000e+03 
935.282  7.04000000e+03 
935.246  7.11700000e+03 
935.210  7.02700000e+03 
935.174  7.12300000e+03 
935.138  7.22700000e+03 
935.102  7.33300000e+03 
935.066  7.13200000e+03 
935.030  7.10900000e+03 
934.994  7.02900000e+03 
934.958  7.06100000e+03 
934.922  7.19700000e+03 
934.886  7.06200000e+03 
934.850  7.16400000e+03 
934.814  7.17900000e+03 
934.779  7.20900000e+03 
934.743  7.19700000e+03 
934.707  7.00700000e+03 
934.671  7.13400000e+03 
934.635  7.08500000e+03 
934.599  7.14000000e+03 
934.563  7.18900000e+03 
934.527  7.20000000e+03 
934.491  7.20100000e+03 
934.455  7.15100000e+03 
934.419  7.11800000e+03 
934.383  7.08500000e+03 
934.347  7.25500000e+03 
934.311  7.21500000e+03 
934.276  7.14200000e+03 
934.240  7.05700000e+03 
934.204  7.17400000e+03 
934.168  7.13000000e+03 
934.132  7.09700000e+03 
934.096  7.28900000e+03 
934.060  7.19800000e+03 
934.024  7.17300000e+03 
933.988  7.23300000e+03 
933.952  7.17800000e+03 
933.916  7.29500000e+03 
933.880  7.13200000e+03 
933.844  7.10800000e+03 
933.808  7.15100000e+03 
933.773  7.10900000e+03 
933.737  7.16600000e+03 
933.701  7.11300000e+03 
933.665  7.24200000e+03 
933.629  6.96500000e+03 
933.593  7.21300000e+03 
933.557  7.27300000e+03 
933.521  7.15700000e+03 
933.485  7.18300000e+03 
933.449  7.21500000e+03 
933.413  7.00200000e+03 
933.377  7.21700000e+03 
933.341  7.25700000e+03 
933.305  7.11000000e+03 
933.270  7.23300000e+03 
933.234  7.08300000e+03 
933.198  7.07300000e+03 
933.162  7.15900000e+03 
933.126  7.21200000e+03 
933.090  7.23400000e+03 
933.054  7.32200000e+03 
933.018  7.17500000e+03 
932.982  7.02700000e+03 
932.946  7.21900000e+03 
932.910  7.30400000e+03 
932.874  7.12500000e+03 
932.838  7.17900000e+03 
932.802  7.22700000e+03 
932.767  7.07700000e+03 
932.731  7.14000000e+03 
932.695  7.15900000e+03 
932.659  7.25800000e+03 
932.623  7.14100000e+03 
932.587  7.12300000e+03 
932.551  7.21200000e+03 
932.515  7.25300000e+03 
932.479  7.19600000e+03 
932.443  7.16300000e+03 
932.407  7.42000000e+03 
932.371  7.23900000e+03 
932.335  7.15900000e+03 
932.299  7.15300000e+03 
932.264  7.12200000e+03 
932.228  7.09300000e+03 
932.192  7.18400000e+03 
932.156  7.20900000e+03 
932.120  7.14300000e+03 
932.084  7.12800000e+03 
932.048  7.23900000e+03 
932.012  7.06200000e+03 
931.976  7.16000000e+03 
931.940  7.19900000e+03 
931.904  7.27900000e+03 
931.868  7.19700000e+03 
931.832  7.05600000e+03 
931.796  7.10700000e+03 
931.761  7.07900000e+03 
931.725  7.03500000e+03 
931.689  7.19100000e+03 
931.653  7.04700000e+03 
931.617  7.19400000e+03 
931.581  6.89000000e+03 
931.545  7.16500000e+03 
931.509  7.02800000e+03 
931.473  7.15700000e+03 
931.437  7.23200000e+03 
931.401  7.27100000e+03 
931.365  7.12700000e+03 
931.329  7.27000000e+03 
931.293  7.16700000e+03 
931.258  7.01500000e+03 
931.222  7.16600000e+03 
931.186  7.13900000e+03 
931.150  7.13000000e+03 
931.114  7.13100000e+03 
931.078  7.05600000e+03 
931.042  7.12000000e+03 
931.006  7.13100000e+03 
930.970  7.24800000e+03 
930.934  7.08500000e+03 
930.898  7.23100000e+03 
930.862  7.17900000e+03 
930.826  7.31800000e+03 
930.790  7.16500000e+03 
930.755  7.25400000e+03 
930.719  7.01400000e+03 
930.683  7.24200000e+03 
930.647  7.10900000e+03 
930.611  7.32200000e+03 
930.575  7.27600000e+03 
930.539  7.17900000e+03 
930.503  7.02200000e+03 
930.467  7.24000000e+03 
930.431  7.21400000e+03 
930.395  7.26000000e+03 
930.359  7.06600000e+03 
930.323  7.19600000e+03 
930.287  7.17600000e+03 
930.252  7.12000000e+03 
930.216  6.98100000e+03 
930.180  7.15200000e+03 
930.144  7.11900000e+03 
930.108  7.04200000e+03 
930.072  7.20200000e+03 
930.036  7.07700000e+03 
930.000  7.07800000e+03 
929.964  7.20300000e+03 
929.928  7.08300000e+03 
929.892  7.12600000e+03 
929.856  7.14700000e+03 
929.820  7.14800000e+03 
929.784  7.22900000e+03 
929.748  7.25000000e+03 
929.713  7.07600000e+03 
929.677  7.09200000e+03 
929.641  7.19400000e+03 
929.605  7.14000000e+03 
929.569  7.08500000e+03 
929.533  7.29700000e+03 
929.497  7.01400000e+03 
929.461  6.99400000e+03 
929.425  7.34100000e+03 
929.389  7.15600000e+03 
929.353  7.21700000e+03 
929.317  7.03900000e+03 
929.281  7.16800000e+03 
929.245  7.04800000e+03 
929.210  7.15500000e+03 
929.174  7.05600000e+03 
929.138  6.96400000e+03 
929.102  7.14600000e+03 
929.066  7.19000000e+03 
929.030  7.07600000e+03 
928.994  7.22500000e+03 
928.958  7.13200000e+03 
928.922  7.12000000e+03 
928.886  6.99200000e+03 
928.850  7.19100000e+03 
928.814  7.01600000e+03 
928.778  7.17000000e+03 
928.742  7.20300000e+03 
928.707  7.09400000e+03 
928.671  6.95200000e+03 
928.635  7.25500000e+03 
928.599  7.03500000e+03 
928.563  7.13400000e+03 
928.527  7.21000000e+03 
928.491  7.11800000e+03 
928.455  7.12800000e+03 
928.419  7.12900000e+03 
928.383  7.19200000e+03 
928.347  7.24100000e+03 
928.311  7.12300000e+03 
928.275  7.23500000e+03 
928.239  7.19400000e+03 
928.204  7.21700000e+03 
928.168  7.21800000e+03 
928.132  7.04900000e+03 
928.096  7.09700000e+03 
928.060  7.12400000e+03 
928.024  7.28800000e+03 
927.988  7.31900000e+03 
927.952  7.10200000e+03 
927.916  7.15000000e+03 
927.880  7.15300000e+03 
927.844  7.02200000e+03 
927.808  6.99700000e+03 
927.772  7.11700000e+03 
927.736  7.03500000e+03 
927.701  7.15800000e+03 
927.665  7.16400000e+03 
927.629  7.16700000e+03 
927.593  7.18100000e+03 
927.557  7.29000000e+03 
927.521  7.09700000e+03 
927.485  7.13100000e+03 
927.449  7.19200000e+03 
927.413  7.10200000e+03 
927.377  7.13500000e+03 
927.341  7.16300000e+03 
927.305  7.18400000e+03 
927.269  7.11800000e+03 
927.233  7.15700000e+03 
927.198  7.21700000e+03 
927.162  7.27200000e+03 
927.126  7.08100000e+03 
927.090  7.07300000e+03 
927.054  7.07800000e+03 
927.018  7.23400000e+03 
926.982  7.31500000e+03 
926.946  7.17900000e+03 
926.910  7.02300000e+03 
926.874  6.95700000e+03 
926.838  7.06900000e+03 
926.802  7.19300000e+03 
926.766  7.11000000e+03 
926.730  7.11100000e+03 
926.695  7.30400000e+03 
926.659  7.24700000e+03 
926.623  7.11900000e+03 
926.587  6.97500000e+03 
926.551  7.16000000e+03 
926.515  7.14300000e+03 
926.479  7.15200000e+03 
926.443  7.05700000e+03 
926.407  7.15400000e+03 
926.371  7.19200000e+03 
926.335  7.23600000e+03 
926.299  7.10600000e+03 
926.263  7.05800000e+03 
926.227  7.12800000e+03 
926.192  7.21900000e+03 
926.156  7.09100000e+03 
926.120  7.29700000e+03 
926.084  7.19500000e+03 
926.048  7.20700000e+03 
926.012  7.14500000e+03 
925.976  7.05100000e+03 
925.940  7.16100000e+03 
925.904  7.17900000e+03 
925.868  7.06300000e+03 
925.832  7.07300000e+03 
925.796  7.09700000e+03 
925.760  6.98400000e+03 
925.724  7.11500000e+03 
925.689  7.11300000e+03 
925.653  7.20100000e+03 
925.617  7.13800000e+03 
925.581  7.33300000e+03 
925.545  7.18700000e+03 
925.509  7.07200000e+03 
925.473  7.15100000e+03 
925.437  7.24700000e+03 
925.401  7.17600000e+03 
925.365  7.11300000e+03 
925.329  7.15800000e+03 
925.293  7.07400000e+03 
925.257  6.98800000e+03 
925.221  7.28600000e+03 
925.186  6.92800000e+03 
925.150  7.11600000e+03 
925.114  7.03500000e+03 
925.078  6.95800000e+03 
925.042  7.13500000e+03 
925.006  6.93700000e+03 
924.970  7.17500000e+03 
924.934  7.12000000e+03 
924.898  7.09000000e+03 
924.862  7.07400000e+03 
924.826  7.12700000e+03 
924.790  7.09800000e+03 
924.754  7.25600000e+03 
924.718  7.08900000e+03 
924.682  6.99800000e+03 
924.647  7.22900000e+03 
924.611  7.06900000e+03 
924.575  7.20800000e+03 
924.539  7.29100000e+03 
924.503  7.13100000e+03 
924.467  7.17200000e+03 
924.431  7.44400000e+03 
924.395  7.14600000e+03 
924.359  7.16800000e+03 
924.323  7.08500000e+03 
924.287  7.23700000e+03 
924.251  7.12900000e+03 
924.215  6.99500000e+03 
924.179  7.17200000e+03 
924.144  7.11200000e+03 
924.108  7.08100000e+03 
924.072  7.19300000e+03 
924.036  6.96000000e+03 
924.000  7.15700000e+03 
923.964  7.08800000e+03 
923.928  7.11700000e+03 
923.892  7.13800000e+03 
923.856  7.11200000e+03 
923.820  7.29500000e+03 
923.784  7.18400000e+03 
923.748  7.11500000e+03 
923.712  7.09500000e+03 
923.676  7.14600000e+03 
923.641  7.15500000e+03 
923.605  7.00100000e+03 
923.569  7.18800000e+03 
923.533  7.19300000e+03 
923.497  7.16800000e+03 
923.461  7.06200000e+03 
923.425  7.16900000e+03 
923.389  7.13900000e+03 
923.353  7.35800000e+03 
923.317  7.03600000e+03 
923.281  7.11500000e+03 
923.245  6.96600000e+03 
923.209  7.07500000e+03 
923.173  7.08700000e+03 
923.138  7.22500000e+03 
923.102  7.11300000e+03 
923.066  7.13800000e+03 
923.030  7.09000000e+03 
922.994  7.05300000e+03 
922.958  7.23900000e+03 
922.922  7.13600000e+03 
922.886  7.09900000e+03 
922.850  7.09700000e+03 
922.814  7.22300000e+03 
922.778  7.15800000e+03 
922.742  7.21600000e+03 
922.706  7.12400000e+03 
922.670  7.11500000e+03 
922.635  7.29500000e+03 
922.599  7.06100000e+03 
922.563  7.19100000e+03 
922.527  7.25800000e+03 
922.491  7.11200000e+03 
922.455  7.11300000e+03 
922.419  7.02200000e+03 
922.383  7.16600000e+03 
922.347  7.16200000e+03 
922.311  7.22800000e+03 
922.275  7.06400000e+03 
922.239  7.15400000e+03 
922.203  7.31600000e+03 
922.167  7.22900000e+03 
922.132  7.10300000e+03 
922.096  7.09000000e+03 
922.060  7.17100000e+03 
922.024  7.18900000e+03 
921.988  7.15500000e+03 
921.952  7.21000000e+03 
921.916  7.18400000e+03 
921.880  7.22200000e+03 
921.844  7.18000000e+03 
921.808  7.21700000e+03 
921.772  6.95200000e+03 
921.736  7.28900000e+03 
921.700  7.11900000e+03 
921.664  7.10100000e+03 
921.629  7.09000000e+03 
921.593  7.09300000e+03 
921.557  7.12600000e+03 
921.521  6.99000000e+03 
921.485  7.12000000e+03 
921.449  7.21500000e+03 
921.413  7.03100000e+03 
921.377  7.20100000e+03 
921.341  7.11800000e+03 
921.305  7.17300000e+03 
921.269  7.15100000e+03 
921.233  7.16900000e+03 
921.197  7.21400000e+03 
921.161  7.27900000e+03 
921.126  7.31300000e+03 
921.090  7.13200000e+03 
921.054  7.28100000e+03 
921.018  7.19100000e+03 
920.982  7.17900000e+03 
920.946  7.13400000e+03 
920.910  7.07200000e+03 
920.874  7.12000000e+03 
920.838  7.16000000e+03 
920.802  7.21800000e+03 
920.766  7.24900000e+03 
920.730  7.13700000e+03 
920.694  7.18000000e+03 
920.658  7.08800000e+03 
920.623  7.11500000e+03 
920.587  7.21100000e+03 
920.551  7.04200000e+03 
920.515  7.09800000e+03 
920.479  7.21100000e+03 
920.443  7.28900000e+03 
920.407  7.08900000e+03 
920.371  7.23900000e+03 
920.335  7.02400000e+03 
920.299  7.20100000e+03 
920.263  7.07900000e+03 
920.227  7.24900000e+03 
920.191  7.08200000e+03 
920.155  7.08600000e+03 
920.120  7.05800000e+03 
920.084  7.25900000e+03 
920.048  7.16900000e+03 
920.012  7.23500000e+03 
