[ Experiment Parameters ]
Experiment Description= <none> 
Number_of_Regions_in_Experiment= 2 

Original_File_name= c:\alexesca\data\97073113.xps 
Instrument= ESCA-West
Date= 07-30-1997
Time=  21:10:03

[ Region 1 Parameters ]
Region_Description = O for XPD                          
BEcenter(eV) = 532.000000
BEwidth(eV) = 14.000000
BEstep(eV) = 0.035938
Dwell_Time(sec) = 0.250000
N_o_scans = 1  
N_o_Channels = 390  
Excitation_Energy = -0.000000  
Scan_mode = 0  (DITHERED)

[ Region 2 Parameters ]
Region_Description = Mn for XPD                         
BEcenter(eV) = 643.000000
BEwidth(eV) = 12.000000
BEstep(eV) = 0.035938
Dwell_Time(sec) = 0.250000
N_o_scans = 1  
N_o_Channels = 334  
Excitation_Energy = -0.000000  
Scan_mode = 0  (DITHERED)

[ Region 1 Curve ]
BEcenter= 532.000 
BEwidth= -13.975 
Excitation= 1486.600
Time_p_channel= 64.000  
Size= 390
538.987  2.08000000e+02 
538.951  2.07000000e+02 
538.915  2.24000000e+02 
538.880  2.17000000e+02 
538.844  1.91000000e+02 
538.808  2.28000000e+02 
538.772  2.38000000e+02 
538.736  2.05000000e+02 
538.700  2.09000000e+02 
538.664  2.16000000e+02 
538.628  2.39000000e+02 
538.592  2.31000000e+02 
538.556  2.19000000e+02 
538.520  2.02000000e+02 
538.484  2.11000000e+02 
538.448  2.01000000e+02 
538.413  2.35000000e+02 
538.377  2.03000000e+02 
538.341  2.22000000e+02 
538.305  2.19000000e+02 
538.269  2.43000000e+02 
538.233  1.77000000e+02 
538.197  2.05000000e+02 
538.161  2.53000000e+02 
538.125  2.08000000e+02 
538.089  2.38000000e+02 
538.053  2.39000000e+02 
538.017  2.13000000e+02 
537.981  2.27000000e+02 
537.945  2.44000000e+02 
537.910  2.34000000e+02 
537.874  2.37000000e+02 
537.838  2.17000000e+02 
537.802  2.27000000e+02 
537.766  2.16000000e+02 
537.730  2.27000000e+02 
537.694  2.49000000e+02 
537.658  1.94000000e+02 
537.622  2.31000000e+02 
537.586  2.20000000e+02 
537.550  2.10000000e+02 
537.514  2.19000000e+02 
537.478  2.26000000e+02 
537.443  2.08000000e+02 
537.407  2.11000000e+02 
537.371  2.39000000e+02 
537.335  2.44000000e+02 
537.299  2.60000000e+02 
537.263  2.20000000e+02 
537.227  2.26000000e+02 
537.191  2.15000000e+02 
537.155  2.33000000e+02 
537.119  2.35000000e+02 
537.083  2.15000000e+02 
537.047  2.36000000e+02 
537.011  1.97000000e+02 
536.976  2.59000000e+02 
536.940  2.49000000e+02 
536.904  2.37000000e+02 
536.868  1.93000000e+02 
536.832  2.19000000e+02 
536.796  2.31000000e+02 
536.760  2.33000000e+02 
536.724  2.47000000e+02 
536.688  2.17000000e+02 
536.652  2.49000000e+02 
536.616  2.62000000e+02 
536.580  2.38000000e+02 
536.544  2.37000000e+02 
536.509  2.45000000e+02 
536.473  2.82000000e+02 
536.437  2.52000000e+02 
536.401  2.66000000e+02 
536.365  2.57000000e+02 
536.329  2.29000000e+02 
536.293  2.79000000e+02 
536.257  2.68000000e+02 
536.221  2.85000000e+02 
536.185  2.75000000e+02 
536.149  2.49000000e+02 
536.113  2.79000000e+02 
536.077  2.63000000e+02 
536.042  2.76000000e+02 
536.006  2.85000000e+02 
535.970  3.16000000e+02 
535.934  3.22000000e+02 
535.898  3.12000000e+02 
535.862  2.77000000e+02 
535.826  3.60000000e+02 
535.790  3.35000000e+02 
535.754  3.26000000e+02 
535.718  3.38000000e+02 
535.682  3.22000000e+02 
535.646  3.62000000e+02 
535.610  3.26000000e+02 
535.574  3.61000000e+02 
535.539  3.40000000e+02 
535.503  3.93000000e+02 
535.467  3.73000000e+02 
535.431  3.79000000e+02 
535.395  4.27000000e+02 
535.359  4.35000000e+02 
535.323  4.33000000e+02 
535.287  4.39000000e+02 
535.251  4.45000000e+02 
535.215  4.75000000e+02 
535.179  4.65000000e+02 
535.143  4.56000000e+02 
535.107  4.38000000e+02 
535.072  4.88000000e+02 
535.036  5.19000000e+02 
535.000  4.61000000e+02 
534.964  5.36000000e+02 
534.928  5.36000000e+02 
534.892  5.30000000e+02 
534.856  5.62000000e+02 
534.820  5.18000000e+02 
534.784  5.35000000e+02 
534.748  5.95000000e+02 
534.712  6.10000000e+02 
534.676  6.29000000e+02 
534.640  6.08000000e+02 
534.605  5.93000000e+02 
534.569  6.00000000e+02 
534.533  6.12000000e+02 
534.497  6.29000000e+02 
534.461  6.63000000e+02 
534.425  6.53000000e+02 
534.389  6.50000000e+02 
534.353  6.82000000e+02 
534.317  7.64000000e+02 
534.281  6.89000000e+02 
534.245  6.72000000e+02 
534.209  7.70000000e+02 
534.173  7.09000000e+02 
534.138  7.92000000e+02 
534.102  7.43000000e+02 
534.066  7.65000000e+02 
534.030  7.67000000e+02 
533.994  8.71000000e+02 
533.958  7.84000000e+02 
533.922  8.34000000e+02 
533.886  8.33000000e+02 
533.850  8.13000000e+02 
533.814  8.28000000e+02 
533.778  7.90000000e+02 
533.742  8.28000000e+02 
533.706  8.72000000e+02 
533.670  8.52000000e+02 
533.635  8.74000000e+02 
533.599  8.60000000e+02 
533.563  8.84000000e+02 
533.527  8.49000000e+02 
533.491  8.92000000e+02 
533.455  8.83000000e+02 
533.419  7.81000000e+02 
533.383  8.27000000e+02 
533.347  8.55000000e+02 
533.311  8.57000000e+02 
533.275  8.66000000e+02 
533.239  7.90000000e+02 
533.203  7.95000000e+02 
533.168  8.00000000e+02 
533.132  7.97000000e+02 
533.096  7.30000000e+02 
533.060  8.43000000e+02 
533.024  7.59000000e+02 
532.988  7.36000000e+02 
532.952  7.71000000e+02 
532.916  7.26000000e+02 
532.880  6.99000000e+02 
532.844  7.24000000e+02 
532.808  7.30000000e+02 
532.772  6.96000000e+02 
532.736  7.07000000e+02 
532.701  6.68000000e+02 
532.665  6.56000000e+02 
532.629  6.16000000e+02 
532.593  5.79000000e+02 
532.557  6.32000000e+02 
532.521  5.60000000e+02 
532.485  5.85000000e+02 
532.449  5.87000000e+02 
532.413  5.66000000e+02 
532.377  5.20000000e+02 
532.341  5.34000000e+02 
532.305  5.16000000e+02 
532.269  5.29000000e+02 
532.234  4.88000000e+02 
532.198  4.99000000e+02 
532.162  4.96000000e+02 
532.126  4.31000000e+02 
532.090  4.47000000e+02 
532.054  4.20000000e+02 
532.018  4.25000000e+02 
531.982  4.33000000e+02 
531.946  4.74000000e+02 
531.910  4.11000000e+02 
531.874  4.08000000e+02 
531.838  3.86000000e+02 
531.802  3.70000000e+02 
531.766  3.90000000e+02 
531.731  3.92000000e+02 
531.695  3.91000000e+02 
531.659  3.63000000e+02 
531.623  3.30000000e+02 
531.587  3.69000000e+02 
531.551  3.45000000e+02 
531.515  3.39000000e+02 
531.479  3.47000000e+02 
531.443  3.60000000e+02 
531.407  3.26000000e+02 
531.371  3.55000000e+02 
531.335  3.07000000e+02 
531.299  3.41000000e+02 
531.264  3.16000000e+02 
531.228  3.02000000e+02 
531.192  3.28000000e+02 
531.156  3.28000000e+02 
531.120  3.05000000e+02 
531.084  3.14000000e+02 
531.048  3.23000000e+02 
531.012  2.88000000e+02 
530.976  3.06000000e+02 
530.940  3.05000000e+02 
530.904  3.25000000e+02 
530.868  3.23000000e+02 
530.832  3.02000000e+02 
530.797  2.90000000e+02 
530.761  3.07000000e+02 
530.725  2.95000000e+02 
530.689  2.86000000e+02 
530.653  2.90000000e+02 
530.617  2.99000000e+02 
530.581  2.88000000e+02 
530.545  2.80000000e+02 
530.509  2.74000000e+02 
530.473  2.78000000e+02 
530.437  2.66000000e+02 
530.401  2.62000000e+02 
530.365  2.55000000e+02 
530.330  2.45000000e+02 
530.294  2.67000000e+02 
530.258  2.61000000e+02 
530.222  2.51000000e+02 
530.186  2.34000000e+02 
530.150  2.39000000e+02 
530.114  2.45000000e+02 
530.078  2.30000000e+02 
530.042  2.17000000e+02 
530.006  2.67000000e+02 
529.970  2.02000000e+02 
529.934  2.32000000e+02 
529.898  2.15000000e+02 
529.862  2.05000000e+02 
529.827  2.21000000e+02 
529.791  1.94000000e+02 
529.755  2.04000000e+02 
529.719  1.89000000e+02 
529.683  2.27000000e+02 
529.647  1.88000000e+02 
529.611  1.97000000e+02 
529.575  1.87000000e+02 
529.539  1.80000000e+02 
529.503  2.22000000e+02 
529.467  1.93000000e+02 
529.431  1.90000000e+02 
529.395  2.06000000e+02 
529.360  1.96000000e+02 
529.324  1.91000000e+02 
529.288  1.91000000e+02 
529.252  2.03000000e+02 
529.216  1.85000000e+02 
529.180  1.98000000e+02 
529.144  1.95000000e+02 
529.108  2.05000000e+02 
529.072  1.96000000e+02 
529.036  2.22000000e+02 
529.000  1.95000000e+02 
528.964  2.05000000e+02 
528.928  1.94000000e+02 
528.893  2.04000000e+02 
528.857  1.99000000e+02 
528.821  1.97000000e+02 
528.785  2.03000000e+02 
528.749  1.96000000e+02 
528.713  1.86000000e+02 
528.677  1.75000000e+02 
528.641  1.74000000e+02 
528.605  1.91000000e+02 
528.569  1.98000000e+02 
528.533  2.01000000e+02 
528.497  1.77000000e+02 
528.461  1.70000000e+02 
528.426  1.89000000e+02 
528.390  1.99000000e+02 
528.354  1.93000000e+02 
528.318  2.25000000e+02 
528.282  1.78000000e+02 
528.246  1.78000000e+02 
528.210  1.82000000e+02 
528.174  1.76000000e+02 
528.138  1.90000000e+02 
528.102  1.75000000e+02 
528.066  1.94000000e+02 
528.030  1.96000000e+02 
527.994  1.85000000e+02 
527.958  2.00000000e+02 
527.923  1.84000000e+02 
527.887  1.72000000e+02 
527.851  1.66000000e+02 
527.815  1.72000000e+02 
527.779  1.70000000e+02 
527.743  1.88000000e+02 
527.707  2.10000000e+02 
527.671  1.87000000e+02 
527.635  1.79000000e+02 
527.599  1.71000000e+02 
527.563  1.63000000e+02 
527.527  1.82000000e+02 
527.491  1.82000000e+02 
527.456  1.85000000e+02 
527.420  1.90000000e+02 
527.384  2.08000000e+02 
527.348  1.96000000e+02 
527.312  1.86000000e+02 
527.276  2.07000000e+02 
527.240  1.80000000e+02 
527.204  1.85000000e+02 
527.168  1.77000000e+02 
527.132  1.80000000e+02 
527.096  1.97000000e+02 
527.060  2.13000000e+02 
527.024  1.89000000e+02 
526.989  1.70000000e+02 
526.953  2.09000000e+02 
526.917  2.20000000e+02 
526.881  2.07000000e+02 
526.845  1.70000000e+02 
526.809  1.86000000e+02 
526.773  1.95000000e+02 
526.737  1.81000000e+02 
526.701  1.74000000e+02 
526.665  1.74000000e+02 
526.629  2.06000000e+02 
526.593  1.98000000e+02 
526.557  1.81000000e+02 
526.522  1.80000000e+02 
526.486  2.02000000e+02 
526.450  1.94000000e+02 
526.414  1.90000000e+02 
526.378  1.72000000e+02 
526.342  1.84000000e+02 
526.306  1.94000000e+02 
526.270  1.93000000e+02 
526.234  1.70000000e+02 
526.198  1.72000000e+02 
526.162  2.02000000e+02 
526.126  1.92000000e+02 
526.090  1.98000000e+02 
526.055  1.68000000e+02 
526.019  1.95000000e+02 
525.983  1.97000000e+02 
525.947  1.72000000e+02 
525.911  1.83000000e+02 
525.875  1.89000000e+02 
525.839  1.85000000e+02 
525.803  1.91000000e+02 
525.767  1.88000000e+02 
525.731  1.85000000e+02 
525.695  1.78000000e+02 
525.659  1.82000000e+02 
525.623  2.09000000e+02 
525.587  1.81000000e+02 
525.552  1.85000000e+02 
525.516  1.99000000e+02 
525.480  2.07000000e+02 
525.444  2.08000000e+02 
525.408  1.73000000e+02 
525.372  1.63000000e+02 
525.336  1.81000000e+02 
525.300  1.84000000e+02 
525.264  1.75000000e+02 
525.228  1.95000000e+02 
525.192  1.81000000e+02 
525.156  1.85000000e+02 
525.120  1.89000000e+02 
525.085  1.82000000e+02 
525.049  1.93000000e+02 
525.013  1.86000000e+02 
[ Region 2 Curve ]
BEcenter= 643.000 
BEwidth= -11.959 
Excitation= 1486.600
Time_p_channel= 64.000  
Size= 334
648.979  3.84000000e+02 
648.944  3.50000000e+02 
648.908  3.83000000e+02 
648.872  3.45000000e+02 
648.836  3.37000000e+02 
648.800  3.65000000e+02 
648.764  3.74000000e+02 
648.728  3.71000000e+02 
648.692  3.79000000e+02 
648.656  3.74000000e+02 
648.620  3.73000000e+02 
648.584  3.90000000e+02 
648.549  3.84000000e+02 
648.513  3.75000000e+02 
648.477  3.78000000e+02 
648.441  4.23000000e+02 
648.405  3.89000000e+02 
648.369  3.84000000e+02 
648.333  3.69000000e+02 
648.297  4.19000000e+02 
648.261  3.53000000e+02 
648.225  3.62000000e+02 
648.189  3.71000000e+02 
648.153  3.73000000e+02 
648.118  4.14000000e+02 
648.082  3.65000000e+02 
648.046  3.55000000e+02 
648.010  4.06000000e+02 
647.974  3.74000000e+02 
647.938  3.73000000e+02 
647.902  3.93000000e+02 
647.866  3.52000000e+02 
647.830  3.47000000e+02 
647.794  3.70000000e+02 
647.758  3.78000000e+02 
647.723  4.02000000e+02 
647.687  3.86000000e+02 
647.651  3.45000000e+02 
647.615  3.73000000e+02 
647.579  3.62000000e+02 
647.543  3.73000000e+02 
647.507  3.72000000e+02 
647.471  3.63000000e+02 
647.435  3.75000000e+02 
647.399  3.73000000e+02 
647.363  3.50000000e+02 
647.328  3.61000000e+02 
647.292  3.62000000e+02 
647.256  3.69000000e+02 
647.220  3.33000000e+02 
647.184  3.56000000e+02 
647.148  3.84000000e+02 
647.112  3.86000000e+02 
647.076  3.73000000e+02 
647.040  3.80000000e+02 
647.004  3.75000000e+02 
646.968  4.15000000e+02 
646.932  3.89000000e+02 
646.897  3.82000000e+02 
646.861  3.60000000e+02 
646.825  3.46000000e+02 
646.789  4.13000000e+02 
646.753  3.75000000e+02 
646.717  3.87000000e+02 
646.681  3.95000000e+02 
646.645  3.71000000e+02 
646.609  3.86000000e+02 
646.573  3.43000000e+02 
646.537  3.69000000e+02 
646.502  3.46000000e+02 
646.466  3.93000000e+02 
646.430  3.80000000e+02 
646.394  4.13000000e+02 
646.358  3.67000000e+02 
646.322  3.61000000e+02 
646.286  3.98000000e+02 
646.250  3.60000000e+02 
646.214  3.57000000e+02 
646.178  3.76000000e+02 
646.142  3.77000000e+02 
646.106  3.53000000e+02 
646.071  3.89000000e+02 
646.035  3.56000000e+02 
645.999  4.11000000e+02 
645.963  3.54000000e+02 
645.927  3.87000000e+02 
645.891  4.38000000e+02 
645.855  3.96000000e+02 
645.819  3.83000000e+02 
645.783  4.38000000e+02 
645.747  3.88000000e+02 
645.711  3.99000000e+02 
645.676  3.73000000e+02 
645.640  3.98000000e+02 
645.604  3.81000000e+02 
645.568  4.27000000e+02 
645.532  3.75000000e+02 
645.496  4.05000000e+02 
645.460  4.00000000e+02 
645.424  3.53000000e+02 
645.388  3.96000000e+02 
645.352  3.83000000e+02 
645.316  3.78000000e+02 
645.280  3.87000000e+02 
645.245  3.93000000e+02 
645.209  3.71000000e+02 
645.173  3.65000000e+02 
645.137  3.96000000e+02 
645.101  3.62000000e+02 
645.065  3.65000000e+02 
645.029  3.83000000e+02 
644.993  3.64000000e+02 
644.957  3.88000000e+02 
644.921  3.70000000e+02 
644.885  3.85000000e+02 
644.850  3.80000000e+02 
644.814  4.02000000e+02 
644.778  4.08000000e+02 
644.742  3.98000000e+02 
644.706  3.89000000e+02 
644.670  3.79000000e+02 
644.634  4.29000000e+02 
644.598  4.32000000e+02 
644.562  3.86000000e+02 
644.526  4.36000000e+02 
644.490  3.96000000e+02 
644.454  4.09000000e+02 
644.419  4.23000000e+02 
644.383  4.35000000e+02 
644.347  3.79000000e+02 
644.311  4.00000000e+02 
644.275  3.95000000e+02 
644.239  4.15000000e+02 
644.203  4.03000000e+02 
644.167  4.21000000e+02 
644.131  4.21000000e+02 
644.095  4.20000000e+02 
644.059  4.01000000e+02 
644.024  3.82000000e+02 
643.988  3.96000000e+02 
643.952  4.06000000e+02 
643.916  3.82000000e+02 
643.880  4.17000000e+02 
643.844  4.32000000e+02 
643.808  4.39000000e+02 
643.772  3.90000000e+02 
643.736  3.99000000e+02 
643.700  3.89000000e+02 
643.664  4.24000000e+02 
643.628  3.67000000e+02 
643.593  3.72000000e+02 
643.557  4.36000000e+02 
643.521  4.70000000e+02 
643.485  4.20000000e+02 
643.449  3.88000000e+02 
643.413  4.27000000e+02 
643.377  4.15000000e+02 
643.341  3.86000000e+02 
643.305  4.15000000e+02 
643.269  4.23000000e+02 
643.233  4.24000000e+02 
643.198  4.09000000e+02 
643.162  4.02000000e+02 
643.126  4.21000000e+02 
643.090  4.35000000e+02 
643.054  4.31000000e+02 
643.018  4.05000000e+02 
642.982  4.64000000e+02 
642.946  4.42000000e+02 
642.910  4.17000000e+02 
642.874  4.18000000e+02 
642.838  4.41000000e+02 
642.802  4.22000000e+02 
642.767  3.83000000e+02 
642.731  4.29000000e+02 
642.695  3.96000000e+02 
642.659  4.32000000e+02 
642.623  4.66000000e+02 
642.587  3.77000000e+02 
642.551  4.09000000e+02 
642.515  4.24000000e+02 
642.479  4.12000000e+02 
642.443  4.55000000e+02 
642.407  4.30000000e+02 
642.372  4.30000000e+02 
642.336  4.53000000e+02 
642.300  4.31000000e+02 
642.264  3.91000000e+02 
642.228  4.06000000e+02 
642.192  4.23000000e+02 
642.156  4.45000000e+02 
642.120  4.58000000e+02 
642.084  4.22000000e+02 
642.048  4.19000000e+02 
642.012  4.05000000e+02 
641.976  3.84000000e+02 
641.941  4.24000000e+02 
641.905  4.31000000e+02 
641.869  4.38000000e+02 
641.833  3.93000000e+02 
641.797  3.98000000e+02 
641.761  3.86000000e+02 
641.725  4.26000000e+02 
641.689  4.22000000e+02 
641.653  4.10000000e+02 
641.617  3.92000000e+02 
641.581  4.13000000e+02 
641.546  3.93000000e+02 
641.510  3.99000000e+02 
641.474  4.03000000e+02 
641.438  3.57000000e+02 
641.402  3.92000000e+02 
641.366  3.78000000e+02 
641.330  3.72000000e+02 
641.294  3.87000000e+02 
641.258  3.99000000e+02 
641.222  3.83000000e+02 
641.186  4.14000000e+02 
641.150  4.08000000e+02 
641.115  3.72000000e+02 
641.079  4.08000000e+02 
641.043  4.13000000e+02 
641.007  3.72000000e+02 
640.971  3.49000000e+02 
640.935  3.74000000e+02 
640.899  4.13000000e+02 
640.863  3.64000000e+02 
640.827  3.66000000e+02 
640.791  3.80000000e+02 
640.755  3.98000000e+02 
640.720  3.68000000e+02 
640.684  3.63000000e+02 
640.648  3.83000000e+02 
640.612  3.78000000e+02 
640.576  3.46000000e+02 
640.540  3.74000000e+02 
640.504  3.48000000e+02 
640.468  3.40000000e+02 
640.432  3.36000000e+02 
640.396  3.37000000e+02 
640.360  3.50000000e+02 
640.324  3.36000000e+02 
640.289  3.93000000e+02 
640.253  3.48000000e+02 
640.217  3.40000000e+02 
640.181  3.67000000e+02 
640.145  3.43000000e+02 
640.109  3.91000000e+02 
640.073  3.43000000e+02 
640.037  3.64000000e+02 
640.001  3.74000000e+02 
639.965  3.47000000e+02 
639.929  3.43000000e+02 
639.894  3.45000000e+02 
639.858  3.36000000e+02 
639.822  3.15000000e+02 
639.786  3.55000000e+02 
639.750  3.49000000e+02 
639.714  3.89000000e+02 
639.678  3.54000000e+02 
639.642  3.87000000e+02 
639.606  3.39000000e+02 
639.570  3.54000000e+02 
639.534  3.21000000e+02 
639.498  3.49000000e+02 
639.463  3.57000000e+02 
639.427  3.38000000e+02 
639.391  3.44000000e+02 
639.355  3.44000000e+02 
639.319  3.56000000e+02 
639.283  3.48000000e+02 
639.247  3.86000000e+02 
639.211  3.59000000e+02 
639.175  3.43000000e+02 
639.139  3.24000000e+02 
639.103  3.49000000e+02 
639.068  3.52000000e+02 
639.032  3.21000000e+02 
638.996  3.43000000e+02 
638.960  3.58000000e+02 
638.924  3.39000000e+02 
638.888  3.55000000e+02 
638.852  3.08000000e+02 
638.816  3.65000000e+02 
638.780  3.53000000e+02 
638.744  3.70000000e+02 
638.708  3.17000000e+02 
638.672  3.50000000e+02 
638.637  3.52000000e+02 
638.601  3.51000000e+02 
638.565  3.42000000e+02 
638.529  3.52000000e+02 
638.493  3.47000000e+02 
638.457  3.58000000e+02 
638.421  3.94000000e+02 
638.385  3.84000000e+02 
638.349  3.60000000e+02 
638.313  3.45000000e+02 
638.277  3.47000000e+02 
638.242  3.49000000e+02 
638.206  3.21000000e+02 
638.170  3.53000000e+02 
638.134  3.81000000e+02 
638.098  3.56000000e+02 
638.062  3.64000000e+02 
638.026  3.70000000e+02 
637.990  3.66000000e+02 
637.954  3.42000000e+02 
637.918  3.62000000e+02 
637.882  3.44000000e+02 
637.847  3.46000000e+02 
637.811  3.41000000e+02 
637.775  3.06000000e+02 
637.739  3.49000000e+02 
637.703  3.57000000e+02 
637.667  3.57000000e+02 
637.631  3.40000000e+02 
637.595  3.76000000e+02 
637.559  3.61000000e+02 
637.523  3.38000000e+02 
637.487  3.53000000e+02 
637.451  3.61000000e+02 
637.416  3.45000000e+02 
637.380  3.68000000e+02 
637.344  3.54000000e+02 
637.308  3.49000000e+02 
637.272  3.55000000e+02 
637.236  3.68000000e+02 
637.200  3.26000000e+02 
637.164  3.47000000e+02 
637.128  3.24000000e+02 
637.092  3.42000000e+02 
637.056  3.76000000e+02 
637.021  3.72000000e+02 
