[ Experiment Parameters ]
Experiment Description= <none> 
Number_of_Regions_in_Experiment= 2 

Original_File_name= c:\alexesca\data\97073006.xps 
Instrument= ESCA-West
Date= 07-29-1997
Time=  22:03:02

[ Region 1 Parameters ]
Region_Description = O for XPD                          
BEcenter(eV) = 532.000000
BEwidth(eV) = 10.000000
BEstep(eV) = 0.035938
Dwell_Time(sec) = 0.500000
N_o_scans = 1  
N_o_Channels = 278  
Excitation_Energy = -0.000000  
Scan_mode = 0  (DITHERED)

[ Region 2 Parameters ]
Region_Description = Mn for XPD                         
BEcenter(eV) = 643.000000
BEwidth(eV) = 15.000000
BEstep(eV) = 0.035938
Dwell_Time(sec) = 0.500000
N_o_scans = 1  
N_o_Channels = 417  
Excitation_Energy = -0.000000  
Scan_mode = 0  (DITHERED)

[ Region 1 Curve ]
BEcenter= 532.000 
BEwidth= -9.943  
Excitation= 1486.600
Time_p_channel= 128.000 
Size= 278
536.972  4.36000000e+02 
536.936  4.38000000e+02 
536.900  4.36000000e+02 
536.864  4.46000000e+02 
536.828  4.51000000e+02 
536.792  4.47000000e+02 
536.756  4.34000000e+02 
536.720  4.39000000e+02 
536.685  4.72000000e+02 
536.649  4.56000000e+02 
536.613  4.72000000e+02 
536.577  4.47000000e+02 
536.541  4.67000000e+02 
536.505  4.09000000e+02 
536.469  4.32000000e+02 
536.433  4.41000000e+02 
536.397  4.51000000e+02 
536.361  4.07000000e+02 
536.326  4.71000000e+02 
536.290  4.66000000e+02 
536.254  4.10000000e+02 
536.218  4.77000000e+02 
536.182  4.51000000e+02 
536.146  4.29000000e+02 
536.110  4.43000000e+02 
536.074  4.72000000e+02 
536.038  4.53000000e+02 
536.002  4.69000000e+02 
535.967  4.60000000e+02 
535.931  4.32000000e+02 
535.895  4.42000000e+02 
535.859  4.47000000e+02 
535.823  4.42000000e+02 
535.787  4.27000000e+02 
535.751  4.67000000e+02 
535.715  4.19000000e+02 
535.679  4.33000000e+02 
535.644  4.41000000e+02 
535.608  4.38000000e+02 
535.572  4.70000000e+02 
535.536  4.65000000e+02 
535.500  4.85000000e+02 
535.464  4.50000000e+02 
535.428  3.87000000e+02 
535.392  4.07000000e+02 
535.356  4.48000000e+02 
535.320  4.43000000e+02 
535.285  4.18000000e+02 
535.249  4.20000000e+02 
535.213  4.69000000e+02 
535.177  4.60000000e+02 
535.141  4.27000000e+02 
535.105  3.98000000e+02 
535.069  4.49000000e+02 
535.033  4.52000000e+02 
534.997  4.41000000e+02 
534.961  4.72000000e+02 
534.926  4.49000000e+02 
534.890  4.75000000e+02 
534.854  4.40000000e+02 
534.818  4.60000000e+02 
534.782  4.68000000e+02 
534.746  4.73000000e+02 
534.710  4.67000000e+02 
534.674  4.08000000e+02 
534.638  4.49000000e+02 
534.603  4.54000000e+02 
534.567  4.76000000e+02 
534.531  4.73000000e+02 
534.495  4.55000000e+02 
534.459  4.46000000e+02 
534.423  4.08000000e+02 
534.387  4.29000000e+02 
534.351  4.39000000e+02 
534.315  4.37000000e+02 
534.279  4.74000000e+02 
534.244  4.86000000e+02 
534.208  4.40000000e+02 
534.172  3.82000000e+02 
534.136  4.30000000e+02 
534.100  4.62000000e+02 
534.064  4.24000000e+02 
534.028  4.66000000e+02 
533.992  4.52000000e+02 
533.956  4.63000000e+02 
533.920  4.34000000e+02 
533.885  4.60000000e+02 
533.849  4.67000000e+02 
533.813  4.24000000e+02 
533.777  4.16000000e+02 
533.741  4.41000000e+02 
533.705  4.76000000e+02 
533.669  4.54000000e+02 
533.633  4.36000000e+02 
533.597  4.65000000e+02 
533.562  4.91000000e+02 
533.526  4.43000000e+02 
533.490  4.49000000e+02 
533.454  4.40000000e+02 
533.418  4.37000000e+02 
533.382  4.85000000e+02 
533.346  4.46000000e+02 
533.310  4.83000000e+02 
533.274  4.27000000e+02 
533.238  4.87000000e+02 
533.203  4.57000000e+02 
533.167  4.33000000e+02 
533.131  4.61000000e+02 
533.095  4.35000000e+02 
533.059  4.86000000e+02 
533.023  4.60000000e+02 
532.987  4.52000000e+02 
532.951  4.34000000e+02 
532.915  4.40000000e+02 
532.879  4.05000000e+02 
532.844  4.32000000e+02 
532.808  4.30000000e+02 
532.772  4.70000000e+02 
532.736  4.49000000e+02 
532.700  4.35000000e+02 
532.664  4.11000000e+02 
532.628  4.35000000e+02 
532.592  4.37000000e+02 
532.556  4.59000000e+02 
532.521  3.95000000e+02 
532.485  4.83000000e+02 
532.449  4.31000000e+02 
532.413  4.70000000e+02 
532.377  4.22000000e+02 
532.341  4.39000000e+02 
532.305  4.52000000e+02 
532.269  4.53000000e+02 
532.233  4.41000000e+02 
532.197  4.42000000e+02 
532.162  4.26000000e+02 
532.126  4.42000000e+02 
532.090  4.79000000e+02 
532.054  4.52000000e+02 
532.018  4.04000000e+02 
531.982  4.39000000e+02 
531.946  4.34000000e+02 
531.910  4.25000000e+02 
531.874  4.23000000e+02 
531.838  4.46000000e+02 
531.803  4.29000000e+02 
531.767  4.68000000e+02 
531.731  4.52000000e+02 
531.695  4.42000000e+02 
531.659  4.45000000e+02 
531.623  4.40000000e+02 
531.587  4.19000000e+02 
531.551  4.58000000e+02 
531.515  4.28000000e+02 
531.479  4.24000000e+02 
531.444  4.46000000e+02 
531.408  4.64000000e+02 
531.372  4.39000000e+02 
531.336  4.58000000e+02 
531.300  4.00000000e+02 
531.264  4.54000000e+02 
531.228  4.53000000e+02 
531.192  4.21000000e+02 
531.156  4.12000000e+02 
531.121  4.56000000e+02 
531.085  4.39000000e+02 
531.049  4.48000000e+02 
531.013  4.56000000e+02 
530.977  4.50000000e+02 
530.941  4.43000000e+02 
530.905  4.38000000e+02 
530.869  4.56000000e+02 
530.833  4.36000000e+02 
530.797  4.01000000e+02 
530.762  4.24000000e+02 
530.726  4.18000000e+02 
530.690  4.30000000e+02 
530.654  4.40000000e+02 
530.618  4.47000000e+02 
530.582  4.37000000e+02 
530.546  5.15000000e+02 
530.510  4.05000000e+02 
530.474  4.48000000e+02 
530.438  4.17000000e+02 
530.403  4.55000000e+02 
530.367  4.42000000e+02 
530.331  4.08000000e+02 
530.295  4.78000000e+02 
530.259  4.47000000e+02 
530.223  4.65000000e+02 
530.187  4.05000000e+02 
530.151  4.27000000e+02 
530.115  4.68000000e+02 
530.080  4.14000000e+02 
530.044  4.43000000e+02 
530.008  4.52000000e+02 
529.972  4.58000000e+02 
529.936  4.72000000e+02 
529.900  4.95000000e+02 
529.864  4.37000000e+02 
529.828  4.56000000e+02 
529.792  4.94000000e+02 
529.756  4.22000000e+02 
529.721  4.15000000e+02 
529.685  4.44000000e+02 
529.649  4.48000000e+02 
529.613  4.30000000e+02 
529.577  4.93000000e+02 
529.541  4.68000000e+02 
529.505  4.40000000e+02 
529.469  4.42000000e+02 
529.433  4.53000000e+02 
529.397  4.41000000e+02 
529.362  4.42000000e+02 
529.326  4.47000000e+02 
529.290  4.67000000e+02 
529.254  4.38000000e+02 
529.218  4.37000000e+02 
529.182  4.85000000e+02 
529.146  4.26000000e+02 
529.110  4.69000000e+02 
529.074  4.31000000e+02 
529.039  4.41000000e+02 
529.003  4.44000000e+02 
528.967  4.60000000e+02 
528.931  4.40000000e+02 
528.895  4.67000000e+02 
528.859  4.66000000e+02 
528.823  4.21000000e+02 
528.787  4.34000000e+02 
528.751  4.19000000e+02 
528.715  4.05000000e+02 
528.680  4.32000000e+02 
528.644  4.77000000e+02 
528.608  4.34000000e+02 
528.572  4.21000000e+02 
528.536  4.52000000e+02 
528.500  4.35000000e+02 
528.464  4.14000000e+02 
528.428  4.43000000e+02 
528.392  4.66000000e+02 
528.356  4.48000000e+02 
528.321  4.50000000e+02 
528.285  4.19000000e+02 
528.249  4.16000000e+02 
528.213  4.28000000e+02 
528.177  4.26000000e+02 
528.141  4.57000000e+02 
528.105  4.37000000e+02 
528.069  4.70000000e+02 
528.033  4.59000000e+02 
527.998  4.44000000e+02 
527.962  4.41000000e+02 
527.926  4.26000000e+02 
527.890  4.40000000e+02 
527.854  4.80000000e+02 
527.818  4.13000000e+02 
527.782  4.44000000e+02 
527.746  4.67000000e+02 
527.710  4.56000000e+02 
527.674  4.37000000e+02 
527.639  4.75000000e+02 
527.603  4.43000000e+02 
527.567  4.54000000e+02 
527.531  4.42000000e+02 
527.495  4.32000000e+02 
527.459  4.45000000e+02 
527.423  4.87000000e+02 
527.387  4.41000000e+02 
527.351  4.60000000e+02 
527.315  4.19000000e+02 
527.280  4.41000000e+02 
527.244  4.36000000e+02 
527.208  4.71000000e+02 
527.172  4.54000000e+02 
527.136  4.17000000e+02 
527.100  4.17000000e+02 
527.064  4.83000000e+02 
527.028  4.70000000e+02 
[ Region 2 Curve ]
BEcenter= 643.000 
BEwidth= -14.938 
Excitation= 1486.600
Time_p_channel= 128.000 
Size= 417
650.469  4.33000000e+02 
650.433  4.53000000e+02 
650.397  4.29000000e+02 
650.361  4.37000000e+02 
650.325  4.55000000e+02 
650.289  3.95000000e+02 
650.253  4.57000000e+02 
650.217  4.04000000e+02 
650.181  4.37000000e+02 
650.146  4.32000000e+02 
650.110  4.39000000e+02 
650.074  4.57000000e+02 
650.038  4.29000000e+02 
650.002  4.61000000e+02 
649.966  4.75000000e+02 
649.930  4.66000000e+02 
649.894  4.55000000e+02 
649.858  4.07000000e+02 
649.822  4.59000000e+02 
649.787  4.50000000e+02 
649.751  4.67000000e+02 
649.715  4.72000000e+02 
649.679  4.48000000e+02 
649.643  4.97000000e+02 
649.607  4.40000000e+02 
649.571  4.52000000e+02 
649.535  4.42000000e+02 
649.499  4.50000000e+02 
649.463  4.34000000e+02 
649.427  4.65000000e+02 
649.392  4.42000000e+02 
649.356  4.45000000e+02 
649.320  4.20000000e+02 
649.284  4.38000000e+02 
649.248  4.77000000e+02 
649.212  4.06000000e+02 
649.176  4.62000000e+02 
649.140  4.43000000e+02 
649.104  4.97000000e+02 
649.068  4.49000000e+02 
649.032  4.71000000e+02 
648.997  4.53000000e+02 
648.961  4.08000000e+02 
648.925  4.30000000e+02 
648.889  4.79000000e+02 
648.853  4.64000000e+02 
648.817  4.35000000e+02 
648.781  4.66000000e+02 
648.745  4.54000000e+02 
648.709  5.04000000e+02 
648.673  4.40000000e+02 
648.637  4.55000000e+02 
648.602  4.32000000e+02 
648.566  4.25000000e+02 
648.530  4.58000000e+02 
648.494  4.39000000e+02 
648.458  4.56000000e+02 
648.422  4.80000000e+02 
648.386  4.57000000e+02 
648.350  4.16000000e+02 
648.314  4.55000000e+02 
648.278  4.31000000e+02 
648.242  4.39000000e+02 
648.207  4.54000000e+02 
648.171  4.35000000e+02 
648.135  4.38000000e+02 
648.099  4.42000000e+02 
648.063  4.61000000e+02 
648.027  4.22000000e+02 
647.991  4.81000000e+02 
647.955  4.51000000e+02 
647.919  4.62000000e+02 
647.883  3.88000000e+02 
647.848  4.44000000e+02 
647.812  4.28000000e+02 
647.776  4.54000000e+02 
647.740  4.58000000e+02 
647.704  4.48000000e+02 
647.668  4.28000000e+02 
647.632  4.54000000e+02 
647.596  4.59000000e+02 
647.560  4.75000000e+02 
647.524  4.33000000e+02 
647.488  4.10000000e+02 
647.453  4.41000000e+02 
647.417  4.80000000e+02 
647.381  4.14000000e+02 
647.345  4.75000000e+02 
647.309  4.62000000e+02 
647.273  4.55000000e+02 
647.237  4.42000000e+02 
647.201  4.32000000e+02 
647.165  4.45000000e+02 
647.129  4.34000000e+02 
647.093  4.76000000e+02 
647.058  4.38000000e+02 
647.022  4.20000000e+02 
646.986  4.42000000e+02 
646.950  4.60000000e+02 
646.914  4.62000000e+02 
646.878  4.52000000e+02 
646.842  4.27000000e+02 
646.806  4.37000000e+02 
646.770  4.33000000e+02 
646.734  4.42000000e+02 
646.698  4.18000000e+02 
646.663  4.24000000e+02 
646.627  4.67000000e+02 
646.591  4.53000000e+02 
646.555  4.23000000e+02 
646.519  4.64000000e+02 
646.483  4.62000000e+02 
646.447  4.49000000e+02 
646.411  4.42000000e+02 
646.375  4.64000000e+02 
646.339  4.37000000e+02 
646.303  4.24000000e+02 
646.268  4.58000000e+02 
646.232  4.13000000e+02 
646.196  4.44000000e+02 
646.160  4.74000000e+02 
646.124  4.23000000e+02 
646.088  4.75000000e+02 
646.052  4.35000000e+02 
646.016  4.57000000e+02 
645.980  4.62000000e+02 
645.944  4.38000000e+02 
645.909  4.40000000e+02 
645.873  4.41000000e+02 
645.837  4.55000000e+02 
645.801  4.87000000e+02 
645.765  4.10000000e+02 
645.729  4.38000000e+02 
645.693  4.02000000e+02 
645.657  4.18000000e+02 
645.621  4.25000000e+02 
645.585  4.41000000e+02 
645.549  4.51000000e+02 
645.514  4.27000000e+02 
645.478  4.36000000e+02 
645.442  4.24000000e+02 
645.406  4.78000000e+02 
645.370  4.16000000e+02 
645.334  4.42000000e+02 
645.298  4.58000000e+02 
645.262  4.68000000e+02 
645.226  4.46000000e+02 
645.190  4.53000000e+02 
645.154  4.42000000e+02 
645.119  4.42000000e+02 
645.083  4.32000000e+02 
645.047  4.10000000e+02 
645.011  4.31000000e+02 
644.975  4.61000000e+02 
644.939  4.60000000e+02 
644.903  4.50000000e+02 
644.867  4.59000000e+02 
644.831  4.39000000e+02 
644.795  4.29000000e+02 
644.759  4.62000000e+02 
644.724  4.48000000e+02 
644.688  4.35000000e+02 
644.652  4.02000000e+02 
644.616  4.36000000e+02 
644.580  4.12000000e+02 
644.544  4.33000000e+02 
644.508  4.42000000e+02 
644.472  4.57000000e+02 
644.436  4.43000000e+02 
644.400  4.61000000e+02 
644.364  4.58000000e+02 
644.329  4.68000000e+02 
644.293  4.51000000e+02 
644.257  4.49000000e+02 
644.221  4.83000000e+02 
644.185  4.49000000e+02 
644.149  4.60000000e+02 
644.113  3.99000000e+02 
644.077  4.30000000e+02 
644.041  4.48000000e+02 
644.005  4.37000000e+02 
643.970  4.36000000e+02 
643.934  4.43000000e+02 
643.898  4.26000000e+02 
643.862  4.86000000e+02 
643.826  4.16000000e+02 
643.790  4.68000000e+02 
643.754  4.62000000e+02 
643.718  4.40000000e+02 
643.682  4.25000000e+02 
643.646  4.20000000e+02 
643.610  4.07000000e+02 
643.575  4.11000000e+02 
643.539  4.22000000e+02 
643.503  4.27000000e+02 
643.467  4.54000000e+02 
643.431  4.33000000e+02 
643.395  4.55000000e+02 
643.359  4.44000000e+02 
643.323  4.23000000e+02 
643.287  4.33000000e+02 
643.251  4.52000000e+02 
643.215  4.54000000e+02 
643.180  4.34000000e+02 
643.144  4.40000000e+02 
643.108  4.54000000e+02 
643.072  4.39000000e+02 
643.036  4.23000000e+02 
643.000  4.47000000e+02 
642.964  4.48000000e+02 
642.928  4.78000000e+02 
642.892  4.59000000e+02 
642.856  4.57000000e+02 
642.820  4.46000000e+02 
642.785  4.74000000e+02 
642.749  4.41000000e+02 
642.713  4.43000000e+02 
642.677  4.33000000e+02 
642.641  4.26000000e+02 
642.605  4.43000000e+02 
642.569  4.36000000e+02 
642.533  4.51000000e+02 
642.497  4.28000000e+02 
642.461  4.56000000e+02 
642.425  4.38000000e+02 
642.390  4.33000000e+02 
642.354  4.70000000e+02 
642.318  4.51000000e+02 
642.282  4.62000000e+02 
642.246  4.27000000e+02 
642.210  4.48000000e+02 
642.174  4.43000000e+02 
642.138  4.68000000e+02 
642.102  4.50000000e+02 
642.066  4.44000000e+02 
642.030  4.21000000e+02 
641.995  4.13000000e+02 
641.959  4.38000000e+02 
641.923  4.59000000e+02 
641.887  4.39000000e+02 
641.851  4.61000000e+02 
641.815  4.14000000e+02 
641.779  4.30000000e+02 
641.743  4.45000000e+02 
641.707  4.47000000e+02 
641.671  4.39000000e+02 
641.636  4.38000000e+02 
641.600  4.65000000e+02 
641.564  4.74000000e+02 
641.528  4.41000000e+02 
641.492  4.65000000e+02 
641.456  4.40000000e+02 
641.420  4.36000000e+02 
641.384  4.71000000e+02 
641.348  4.59000000e+02 
641.312  4.38000000e+02 
641.276  4.54000000e+02 
641.241  4.51000000e+02 
641.205  4.62000000e+02 
641.169  4.25000000e+02 
641.133  4.54000000e+02 
641.097  4.22000000e+02 
641.061  4.41000000e+02 
641.025  4.28000000e+02 
640.989  4.51000000e+02 
640.953  4.28000000e+02 
640.917  4.61000000e+02 
640.881  4.85000000e+02 
640.846  4.13000000e+02 
640.810  4.57000000e+02 
640.774  4.40000000e+02 
640.738  4.53000000e+02 
640.702  4.65000000e+02 
640.666  4.42000000e+02 
640.630  4.29000000e+02 
640.594  4.61000000e+02 
640.558  4.40000000e+02 
640.522  4.40000000e+02 
640.486  4.34000000e+02 
640.451  4.25000000e+02 
640.415  4.72000000e+02 
640.379  4.33000000e+02 
640.343  4.44000000e+02 
640.307  4.59000000e+02 
640.271  4.46000000e+02 
640.235  4.34000000e+02 
640.199  4.30000000e+02 
640.163  4.32000000e+02 
640.127  3.78000000e+02 
640.091  4.15000000e+02 
640.056  4.08000000e+02 
640.020  4.30000000e+02 
639.984  4.09000000e+02 
639.948  4.74000000e+02 
639.912  4.61000000e+02 
639.876  4.59000000e+02 
639.840  3.99000000e+02 
639.804  4.14000000e+02 
639.768  4.32000000e+02 
639.732  4.15000000e+02 
639.697  4.56000000e+02 
639.661  4.24000000e+02 
639.625  4.46000000e+02 
639.589  4.14000000e+02 
639.553  4.63000000e+02 
639.517  4.02000000e+02 
639.481  4.06000000e+02 
639.445  4.36000000e+02 
639.409  4.66000000e+02 
639.373  4.49000000e+02 
639.337  4.19000000e+02 
639.302  4.50000000e+02 
639.266  4.60000000e+02 
639.230  4.66000000e+02 
639.194  4.74000000e+02 
639.158  4.28000000e+02 
639.122  4.34000000e+02 
639.086  4.27000000e+02 
639.050  4.21000000e+02 
639.014  4.65000000e+02 
638.978  4.64000000e+02 
638.942  4.23000000e+02 
638.907  4.20000000e+02 
638.871  4.30000000e+02 
638.835  4.47000000e+02 
638.799  4.25000000e+02 
638.763  4.68000000e+02 
638.727  4.47000000e+02 
638.691  4.46000000e+02 
638.655  4.62000000e+02 
638.619  4.59000000e+02 
638.583  4.57000000e+02 
638.547  4.65000000e+02 
638.512  4.42000000e+02 
638.476  4.43000000e+02 
638.440  3.90000000e+02 
638.404  4.38000000e+02 
638.368  4.27000000e+02 
638.332  4.46000000e+02 
638.296  4.13000000e+02 
638.260  4.43000000e+02 
638.224  4.40000000e+02 
638.188  4.44000000e+02 
638.152  4.32000000e+02 
638.117  4.33000000e+02 
638.081  4.16000000e+02 
638.045  4.15000000e+02 
638.009  4.76000000e+02 
637.973  4.42000000e+02 
637.937  4.87000000e+02 
637.901  4.67000000e+02 
637.865  4.22000000e+02 
637.829  4.34000000e+02 
637.793  4.82000000e+02 
637.758  4.09000000e+02 
637.722  4.27000000e+02 
637.686  4.69000000e+02 
637.650  4.58000000e+02 
637.614  4.72000000e+02 
637.578  4.69000000e+02 
637.542  4.22000000e+02 
637.506  4.68000000e+02 
637.470  4.42000000e+02 
637.434  4.92000000e+02 
637.398  4.40000000e+02 
637.363  4.40000000e+02 
637.327  4.47000000e+02 
637.291  4.41000000e+02 
637.255  4.62000000e+02 
637.219  4.46000000e+02 
637.183  4.55000000e+02 
637.147  4.42000000e+02 
637.111  4.07000000e+02 
637.075  4.18000000e+02 
637.039  4.22000000e+02 
637.003  4.10000000e+02 
636.968  4.48000000e+02 
636.932  4.46000000e+02 
636.896  4.29000000e+02 
636.860  4.43000000e+02 
636.824  4.29000000e+02 
636.788  4.39000000e+02 
636.752  4.52000000e+02 
636.716  4.33000000e+02 
636.680  4.52000000e+02 
636.644  4.32000000e+02 
636.608  4.50000000e+02 
636.573  4.60000000e+02 
636.537  4.27000000e+02 
636.501  4.40000000e+02 
636.465  4.31000000e+02 
636.429  4.80000000e+02 
636.393  4.37000000e+02 
636.357  4.34000000e+02 
636.321  4.52000000e+02 
636.285  4.40000000e+02 
636.249  4.49000000e+02 
636.213  4.42000000e+02 
636.178  4.53000000e+02 
636.142  4.59000000e+02 
636.106  4.39000000e+02 
636.070  4.64000000e+02 
636.034  4.83000000e+02 
635.998  4.47000000e+02 
635.962  4.49000000e+02 
635.926  4.59000000e+02 
635.890  4.72000000e+02 
635.854  4.68000000e+02 
635.819  4.72000000e+02 
635.783  4.25000000e+02 
635.747  4.68000000e+02 
635.711  4.40000000e+02 
635.675  4.35000000e+02 
635.639  4.52000000e+02 
635.603  4.40000000e+02 
635.567  4.40000000e+02 
635.531  4.44000000e+02 
