[ Experiment Parameters ]
Experiment Description= Ni 2p 3/2 one more time 
Number_of_Regions_in_Experiment= 1 

Original_File_name= c:\alexesca\data\97072406.xps 
Instrument= ESCA-West
Date= 07-24-1997
Time=  14:34:42

[ Region 1 Parameters ]
Region_Description = Ni 2p 3/2 final test               
BEcenter(eV) = 865.000000
BEwidth(eV) = 10.000000
BEstep(eV) = 0.035938
Dwell_Time(sec) = 1.000000
N_o_scans = 1  
N_o_Channels = 278  
Excitation_Energy = -808170618903862082696166748165219811328.000000  
Scan_mode = 0  (DITHERED)

[ Region 1 Curve ]
BEcenter= 865.000 
BEwidth= -9.943  
Excitation= 1486.600
Time_p_channel= 256.000 
Size= 278
869.972  3.68000000e+02 
869.936  4.15000000e+02 
869.900  3.81000000e+02 
869.864  3.75000000e+02 
869.828  3.65000000e+02 
869.792  3.82000000e+02 
869.756  3.83000000e+02 
869.720  4.21000000e+02 
869.685  3.97000000e+02 
869.649  4.16000000e+02 
869.613  4.02000000e+02 
869.577  4.05000000e+02 
869.541  3.80000000e+02 
869.505  4.01000000e+02 
869.469  3.76000000e+02 
869.433  3.75000000e+02 
869.397  4.08000000e+02 
869.361  3.65000000e+02 
869.326  3.70000000e+02 
869.290  3.84000000e+02 
869.254  3.93000000e+02 
869.218  4.03000000e+02 
869.182  3.72000000e+02 
869.146  3.97000000e+02 
869.110  3.91000000e+02 
869.074  3.98000000e+02 
869.038  4.09000000e+02 
869.002  3.66000000e+02 
868.967  3.68000000e+02 
868.931  4.03000000e+02 
868.895  4.21000000e+02 
868.859  4.21000000e+02 
868.823  3.95000000e+02 
868.787  3.81000000e+02 
868.751  3.86000000e+02 
868.715  3.80000000e+02 
868.679  4.02000000e+02 
868.644  4.24000000e+02 
868.608  3.85000000e+02 
868.572  3.82000000e+02 
868.536  4.06000000e+02 
868.500  4.10000000e+02 
868.464  3.82000000e+02 
868.428  3.83000000e+02 
868.392  4.35000000e+02 
868.356  3.69000000e+02 
868.320  3.73000000e+02 
868.285  3.85000000e+02 
868.249  3.49000000e+02 
868.213  4.12000000e+02 
868.177  3.73000000e+02 
868.141  3.95000000e+02 
868.105  3.70000000e+02 
868.069  3.71000000e+02 
868.033  3.87000000e+02 
867.997  4.05000000e+02 
867.961  3.87000000e+02 
867.926  4.17000000e+02 
867.890  4.20000000e+02 
867.854  3.82000000e+02 
867.818  3.53000000e+02 
867.782  3.79000000e+02 
867.746  4.09000000e+02 
867.710  3.58000000e+02 
867.674  3.62000000e+02 
867.638  3.99000000e+02 
867.603  3.81000000e+02 
867.567  4.11000000e+02 
867.531  3.96000000e+02 
867.495  3.80000000e+02 
867.459  3.85000000e+02 
867.423  3.73000000e+02 
867.387  3.83000000e+02 
867.351  4.24000000e+02 
867.315  4.01000000e+02 
867.279  3.72000000e+02 
867.244  4.05000000e+02 
867.208  3.70000000e+02 
867.172  4.06000000e+02 
867.136  3.82000000e+02 
867.100  4.11000000e+02 
867.064  3.91000000e+02 
867.028  3.96000000e+02 
866.992  3.60000000e+02 
866.956  3.89000000e+02 
866.920  4.14000000e+02 
866.885  3.83000000e+02 
866.849  3.72000000e+02 
866.813  4.01000000e+02 
866.777  3.81000000e+02 
866.741  3.89000000e+02 
866.705  3.85000000e+02 
866.669  3.88000000e+02 
866.633  3.75000000e+02 
866.597  4.09000000e+02 
866.562  3.95000000e+02 
866.526  4.20000000e+02 
866.490  4.09000000e+02 
866.454  4.05000000e+02 
866.418  4.07000000e+02 
866.382  4.03000000e+02 
866.346  3.49000000e+02 
866.310  3.72000000e+02 
866.274  3.80000000e+02 
866.238  4.17000000e+02 
866.203  4.19000000e+02 
866.167  3.67000000e+02 
866.131  3.72000000e+02 
866.095  4.20000000e+02 
866.059  4.20000000e+02 
866.023  3.81000000e+02 
865.987  3.91000000e+02 
865.951  4.01000000e+02 
865.915  4.17000000e+02 
865.879  3.75000000e+02 
865.844  3.88000000e+02 
865.808  3.95000000e+02 
865.772  4.20000000e+02 
865.736  3.82000000e+02 
865.700  4.03000000e+02 
865.664  4.02000000e+02 
865.628  3.89000000e+02 
865.592  3.83000000e+02 
865.556  3.89000000e+02 
865.521  3.95000000e+02 
865.485  3.79000000e+02 
865.449  3.81000000e+02 
865.413  3.81000000e+02 
865.377  4.03000000e+02 
865.341  3.86000000e+02 
865.305  4.39000000e+02 
865.269  4.08000000e+02 
865.233  3.81000000e+02 
865.197  4.13000000e+02 
865.162  4.53000000e+02 
865.126  4.37000000e+02 
865.090  3.79000000e+02 
865.054  4.13000000e+02 
865.018  3.80000000e+02 
864.982  3.83000000e+02 
864.946  4.22000000e+02 
864.910  4.40000000e+02 
864.874  4.15000000e+02 
864.838  3.95000000e+02 
864.803  3.69000000e+02 
864.767  4.02000000e+02 
864.731  3.90000000e+02 
864.695  3.86000000e+02 
864.659  4.22000000e+02 
864.623  4.15000000e+02 
864.587  3.87000000e+02 
864.551  4.20000000e+02 
864.515  4.26000000e+02 
864.479  4.07000000e+02 
864.444  3.92000000e+02 
864.408  4.37000000e+02 
864.372  4.22000000e+02 
864.336  4.17000000e+02 
864.300  4.08000000e+02 
864.264  3.95000000e+02 
864.228  3.99000000e+02 
864.192  3.68000000e+02 
864.156  4.09000000e+02 
864.121  3.71000000e+02 
864.085  3.90000000e+02 
864.049  4.23000000e+02 
864.013  3.98000000e+02 
863.977  4.05000000e+02 
863.941  3.83000000e+02 
863.905  3.78000000e+02 
863.869  3.98000000e+02 
863.833  4.24000000e+02 
863.797  3.84000000e+02 
863.762  4.08000000e+02 
863.726  3.88000000e+02 
863.690  3.70000000e+02 
863.654  3.89000000e+02 
863.618  4.24000000e+02 
863.582  4.10000000e+02 
863.546  4.04000000e+02 
863.510  4.08000000e+02 
863.474  3.58000000e+02 
863.438  4.25000000e+02 
863.403  3.75000000e+02 
863.367  3.63000000e+02 
863.331  4.01000000e+02 
863.295  3.90000000e+02 
863.259  3.66000000e+02 
863.223  3.76000000e+02 
863.187  3.69000000e+02 
863.151  3.49000000e+02 
863.115  4.22000000e+02 
863.080  3.52000000e+02 
863.044  3.98000000e+02 
863.008  3.89000000e+02 
862.972  3.92000000e+02 
862.936  3.82000000e+02 
862.900  3.74000000e+02 
862.864  3.97000000e+02 
862.828  4.14000000e+02 
862.792  3.84000000e+02 
862.756  4.23000000e+02 
862.721  3.67000000e+02 
862.685  3.83000000e+02 
862.649  3.83000000e+02 
862.613  3.98000000e+02 
862.577  3.95000000e+02 
862.541  3.93000000e+02 
862.505  3.76000000e+02 
862.469  3.63000000e+02 
862.433  4.25000000e+02 
862.397  3.72000000e+02 
862.362  3.96000000e+02 
862.326  3.55000000e+02 
862.290  3.91000000e+02 
862.254  4.07000000e+02 
862.218  3.68000000e+02 
862.182  3.87000000e+02 
862.146  4.01000000e+02 
862.110  3.81000000e+02 
862.074  3.75000000e+02 
862.039  3.94000000e+02 
862.003  3.91000000e+02 
861.967  3.77000000e+02 
861.931  4.01000000e+02 
861.895  3.96000000e+02 
861.859  3.88000000e+02 
861.823  3.83000000e+02 
861.787  3.81000000e+02 
861.751  3.84000000e+02 
861.715  3.78000000e+02 
861.680  3.86000000e+02 
861.644  4.10000000e+02 
861.608  3.84000000e+02 
861.572  3.87000000e+02 
861.536  4.17000000e+02 
861.500  3.82000000e+02 
861.464  3.85000000e+02 
861.428  3.81000000e+02 
861.392  3.88000000e+02 
861.356  4.14000000e+02 
861.321  3.87000000e+02 
861.285  3.91000000e+02 
861.249  3.71000000e+02 
861.213  3.94000000e+02 
861.177  3.77000000e+02 
861.141  4.14000000e+02 
861.105  3.58000000e+02 
861.069  3.67000000e+02 
861.033  3.83000000e+02 
860.998  3.52000000e+02 
860.962  3.77000000e+02 
860.926  3.85000000e+02 
860.890  3.78000000e+02 
860.854  4.11000000e+02 
860.818  3.98000000e+02 
860.782  3.65000000e+02 
860.746  3.87000000e+02 
860.710  3.98000000e+02 
860.674  3.59000000e+02 
860.639  3.49000000e+02 
860.603  4.10000000e+02 
860.567  3.92000000e+02 
860.531  3.90000000e+02 
860.495  4.04000000e+02 
860.459  3.67000000e+02 
860.423  3.51000000e+02 
860.387  3.87000000e+02 
860.351  3.97000000e+02 
860.315  3.51000000e+02 
860.280  4.09000000e+02 
860.244  3.64000000e+02 
860.208  3.95000000e+02 
860.172  4.01000000e+02 
860.136  3.63000000e+02 
860.100  4.09000000e+02 
860.064  3.83000000e+02 
860.028  3.66000000e+02 
