[ Experiment Parameters ]
Experiment Description= <none> 
Number_of_Regions_in_Experiment= 2 

Original_File_name= c:\alexesca\data\97073009.xps 
Instrument= ESCA-West
Date= 07-29-1997
Time=  22:42:17

[ Region 1 Parameters ]
Region_Description = O for XPD                          
BEcenter(eV) = 532.000000
BEwidth(eV) = 10.000000
BEstep(eV) = 0.035938
Dwell_Time(sec) = 0.500000
N_o_scans = 1  
N_o_Channels = 278  
Excitation_Energy = -0.000000  
Scan_mode = 0  (DITHERED)

[ Region 2 Parameters ]
Region_Description = Mn for XPD                         
BEcenter(eV) = 643.000000
BEwidth(eV) = 15.000000
BEstep(eV) = 0.035938
Dwell_Time(sec) = 0.500000
N_o_scans = 1  
N_o_Channels = 417  
Excitation_Energy = -0.000000  
Scan_mode = 0  (DITHERED)

[ Region 1 Curve ]
BEcenter= 532.000 
BEwidth= -9.943  
Excitation= 1486.600
Time_p_channel= 128.000 
Size= 278
536.972  7.82000000e+02 
536.936  7.94000000e+02 
536.900  8.86000000e+02 
536.864  8.19000000e+02 
536.828  7.86000000e+02 
536.792  8.69000000e+02 
536.756  8.39000000e+02 
536.720  8.05000000e+02 
536.685  8.33000000e+02 
536.649  7.69000000e+02 
536.613  7.94000000e+02 
536.577  9.12000000e+02 
536.541  8.81000000e+02 
536.505  8.17000000e+02 
536.469  8.36000000e+02 
536.433  7.45000000e+02 
536.397  7.84000000e+02 
536.361  8.45000000e+02 
536.326  8.38000000e+02 
536.290  8.02000000e+02 
536.254  7.88000000e+02 
536.218  7.99000000e+02 
536.182  8.07000000e+02 
536.146  8.61000000e+02 
536.110  8.65000000e+02 
536.074  8.03000000e+02 
536.038  8.08000000e+02 
536.002  7.97000000e+02 
535.967  8.27000000e+02 
535.931  8.28000000e+02 
535.895  8.12000000e+02 
535.859  8.10000000e+02 
535.823  8.67000000e+02 
535.787  8.26000000e+02 
535.751  8.31000000e+02 
535.715  8.10000000e+02 
535.679  8.14000000e+02 
535.644  7.76000000e+02 
535.608  8.15000000e+02 
535.572  7.95000000e+02 
535.536  8.13000000e+02 
535.500  8.36000000e+02 
535.464  8.84000000e+02 
535.428  8.62000000e+02 
535.392  8.70000000e+02 
535.356  8.48000000e+02 
535.320  8.06000000e+02 
535.285  8.16000000e+02 
535.249  7.98000000e+02 
535.213  8.38000000e+02 
535.177  8.18000000e+02 
535.141  7.94000000e+02 
535.105  7.72000000e+02 
535.069  8.22000000e+02 
535.033  8.80000000e+02 
534.997  8.56000000e+02 
534.961  8.59000000e+02 
534.926  8.39000000e+02 
534.890  7.96000000e+02 
534.854  8.37000000e+02 
534.818  8.35000000e+02 
534.782  7.72000000e+02 
534.746  8.15000000e+02 
534.710  8.01000000e+02 
534.674  8.30000000e+02 
534.638  8.35000000e+02 
534.603  8.64000000e+02 
534.567  8.72000000e+02 
534.531  8.04000000e+02 
534.495  8.56000000e+02 
534.459  8.41000000e+02 
534.423  8.13000000e+02 
534.387  8.09000000e+02 
534.351  8.40000000e+02 
534.315  8.36000000e+02 
534.279  8.67000000e+02 
534.244  8.24000000e+02 
534.208  8.17000000e+02 
534.172  8.52000000e+02 
534.136  8.34000000e+02 
534.100  8.01000000e+02 
534.064  8.31000000e+02 
534.028  8.10000000e+02 
533.992  8.01000000e+02 
533.956  8.03000000e+02 
533.920  8.51000000e+02 
533.885  7.64000000e+02 
533.849  8.05000000e+02 
533.813  8.35000000e+02 
533.777  8.76000000e+02 
533.741  8.50000000e+02 
533.705  8.31000000e+02 
533.669  8.18000000e+02 
533.633  7.98000000e+02 
533.597  8.07000000e+02 
533.562  8.25000000e+02 
533.526  8.48000000e+02 
533.490  7.82000000e+02 
533.454  8.23000000e+02 
533.418  8.32000000e+02 
533.382  7.73000000e+02 
533.346  8.38000000e+02 
533.310  8.73000000e+02 
533.274  8.82000000e+02 
533.238  8.45000000e+02 
533.203  8.61000000e+02 
533.167  8.24000000e+02 
533.131  8.08000000e+02 
533.095  8.30000000e+02 
533.059  7.73000000e+02 
533.023  7.99000000e+02 
532.987  8.35000000e+02 
532.951  8.54000000e+02 
532.915  7.85000000e+02 
532.879  8.21000000e+02 
532.844  8.49000000e+02 
532.808  8.17000000e+02 
532.772  7.78000000e+02 
532.736  8.05000000e+02 
532.700  8.03000000e+02 
532.664  8.25000000e+02 
532.628  7.93000000e+02 
532.592  8.32000000e+02 
532.556  8.24000000e+02 
532.521  8.16000000e+02 
532.485  8.44000000e+02 
532.449  7.91000000e+02 
532.413  8.50000000e+02 
532.377  7.95000000e+02 
532.341  8.03000000e+02 
532.305  8.48000000e+02 
532.269  8.50000000e+02 
532.233  8.16000000e+02 
532.197  7.93000000e+02 
532.162  8.54000000e+02 
532.126  8.21000000e+02 
532.090  8.72000000e+02 
532.054  8.31000000e+02 
532.018  8.31000000e+02 
531.982  8.35000000e+02 
531.946  8.04000000e+02 
531.910  7.93000000e+02 
531.874  8.33000000e+02 
531.838  8.33000000e+02 
531.803  8.15000000e+02 
531.767  8.29000000e+02 
531.731  7.84000000e+02 
531.695  8.49000000e+02 
531.659  8.04000000e+02 
531.623  8.16000000e+02 
531.587  7.80000000e+02 
531.551  8.19000000e+02 
531.515  8.33000000e+02 
531.479  8.22000000e+02 
531.444  8.25000000e+02 
531.408  7.90000000e+02 
531.372  8.41000000e+02 
531.336  8.13000000e+02 
531.300  8.35000000e+02 
531.264  7.78000000e+02 
531.228  8.23000000e+02 
531.192  8.32000000e+02 
531.156  8.33000000e+02 
531.121  8.32000000e+02 
531.085  8.86000000e+02 
531.049  8.01000000e+02 
531.013  8.51000000e+02 
530.977  7.99000000e+02 
530.941  8.07000000e+02 
530.905  8.42000000e+02 
530.869  7.68000000e+02 
530.833  8.54000000e+02 
530.797  8.56000000e+02 
530.762  7.92000000e+02 
530.726  8.26000000e+02 
530.690  8.21000000e+02 
530.654  8.11000000e+02 
530.618  8.15000000e+02 
530.582  8.06000000e+02 
530.546  8.51000000e+02 
530.510  8.55000000e+02 
530.474  7.92000000e+02 
530.438  8.54000000e+02 
530.403  7.96000000e+02 
530.367  8.52000000e+02 
530.331  8.31000000e+02 
530.295  7.79000000e+02 
530.259  8.09000000e+02 
530.223  8.47000000e+02 
530.187  8.57000000e+02 
530.151  8.27000000e+02 
530.115  7.86000000e+02 
530.080  8.59000000e+02 
530.044  8.33000000e+02 
530.008  8.15000000e+02 
529.972  8.29000000e+02 
529.936  8.28000000e+02 
529.900  8.16000000e+02 
529.864  8.41000000e+02 
529.828  8.27000000e+02 
529.792  8.56000000e+02 
529.756  8.05000000e+02 
529.721  8.08000000e+02 
529.685  7.85000000e+02 
529.649  7.96000000e+02 
529.613  8.14000000e+02 
529.577  8.11000000e+02 
529.541  8.30000000e+02 
529.505  8.17000000e+02 
529.469  8.27000000e+02 
529.433  8.17000000e+02 
529.397  7.81000000e+02 
529.362  8.31000000e+02 
529.326  7.98000000e+02 
529.290  8.02000000e+02 
529.254  8.17000000e+02 
529.218  7.83000000e+02 
529.182  8.53000000e+02 
529.146  7.99000000e+02 
529.110  8.82000000e+02 
529.074  7.75000000e+02 
529.039  8.85000000e+02 
529.003  8.79000000e+02 
528.967  8.19000000e+02 
528.931  7.97000000e+02 
528.895  7.90000000e+02 
528.859  8.51000000e+02 
528.823  8.00000000e+02 
528.787  8.51000000e+02 
528.751  8.04000000e+02 
528.715  8.03000000e+02 
528.680  8.65000000e+02 
528.644  8.16000000e+02 
528.608  8.02000000e+02 
528.572  7.84000000e+02 
528.536  8.38000000e+02 
528.500  7.95000000e+02 
528.464  8.22000000e+02 
528.428  8.34000000e+02 
528.392  8.42000000e+02 
528.356  8.10000000e+02 
528.321  8.32000000e+02 
528.285  7.53000000e+02 
528.249  8.53000000e+02 
528.213  7.99000000e+02 
528.177  8.23000000e+02 
528.141  8.19000000e+02 
528.105  7.87000000e+02 
528.069  8.02000000e+02 
528.033  8.73000000e+02 
527.998  8.48000000e+02 
527.962  8.06000000e+02 
527.926  8.25000000e+02 
527.890  8.22000000e+02 
527.854  8.57000000e+02 
527.818  8.38000000e+02 
527.782  8.12000000e+02 
527.746  8.97000000e+02 
527.710  8.92000000e+02 
527.674  8.49000000e+02 
527.639  8.37000000e+02 
527.603  8.23000000e+02 
527.567  8.20000000e+02 
527.531  8.09000000e+02 
527.495  8.57000000e+02 
527.459  8.34000000e+02 
527.423  9.05000000e+02 
527.387  8.38000000e+02 
527.351  8.35000000e+02 
527.315  8.09000000e+02 
527.280  8.20000000e+02 
527.244  8.22000000e+02 
527.208  8.46000000e+02 
527.172  8.29000000e+02 
527.136  8.09000000e+02 
527.100  7.93000000e+02 
527.064  8.13000000e+02 
527.028  8.51000000e+02 
