[ Experiment Parameters ]
Experiment Description= <none> 
Number_of_Regions_in_Experiment= 2 

Original_File_name= c:\alexesca\data\97073107.xps 
Instrument= ESCA-West
Date= 07-30-1997
Time=  20:29:44

[ Region 1 Parameters ]
Region_Description = O for XPD                          
BEcenter(eV) = 532.000000
BEwidth(eV) = 14.000000
BEstep(eV) = 0.035938
Dwell_Time(sec) = 0.250000
N_o_scans = 1  
N_o_Channels = 390  
Excitation_Energy = -0.000000  
Scan_mode = 0  (DITHERED)

[ Region 2 Parameters ]
Region_Description = Mn for XPD                         
BEcenter(eV) = 643.000000
BEwidth(eV) = 12.000000
BEstep(eV) = 0.035938
Dwell_Time(sec) = 0.250000
N_o_scans = 1  
N_o_Channels = 334  
Excitation_Energy = -0.000000  
Scan_mode = 0  (DITHERED)

[ Region 1 Curve ]
BEcenter= 532.000 
BEwidth= -13.975 
Excitation= 1486.600
Time_p_channel= 64.000  
Size= 390
538.987  9.60000000e+01 
538.951  9.70000000e+01 
538.915  1.00000000e+02 
538.880  1.11000000e+02 
538.844  1.03000000e+02 
538.808  9.70000000e+01 
538.772  9.90000000e+01 
538.736  9.40000000e+01 
538.700  1.02000000e+02 
538.664  8.70000000e+01 
538.628  1.04000000e+02 
538.592  9.80000000e+01 
538.556  9.00000000e+01 
538.520  9.10000000e+01 
538.484  1.08000000e+02 
538.448  1.03000000e+02 
538.413  9.50000000e+01 
538.377  9.30000000e+01 
538.341  9.90000000e+01 
538.305  1.02000000e+02 
538.269  9.90000000e+01 
538.233  9.20000000e+01 
538.197  1.05000000e+02 
538.161  1.07000000e+02 
538.125  9.90000000e+01 
538.089  1.19000000e+02 
538.053  9.80000000e+01 
538.017  9.70000000e+01 
537.981  1.03000000e+02 
537.945  1.05000000e+02 
537.910  9.60000000e+01 
537.874  1.05000000e+02 
537.838  1.07000000e+02 
537.802  1.09000000e+02 
537.766  9.40000000e+01 
537.730  1.14000000e+02 
537.694  1.11000000e+02 
537.658  9.10000000e+01 
537.622  9.10000000e+01 
537.586  1.03000000e+02 
537.550  9.80000000e+01 
537.514  1.00000000e+02 
537.478  8.70000000e+01 
537.443  1.05000000e+02 
537.407  1.08000000e+02 
537.371  1.03000000e+02 
537.335  9.10000000e+01 
537.299  1.04000000e+02 
537.263  1.04000000e+02 
537.227  1.01000000e+02 
537.191  9.20000000e+01 
537.155  9.20000000e+01 
537.119  9.70000000e+01 
537.083  1.04000000e+02 
537.047  1.08000000e+02 
537.011  1.17000000e+02 
536.976  8.70000000e+01 
536.940  8.60000000e+01 
536.904  9.40000000e+01 
536.868  1.01000000e+02 
536.832  9.00000000e+01 
536.796  1.07000000e+02 
536.760  9.60000000e+01 
536.724  1.03000000e+02 
536.688  9.40000000e+01 
536.652  1.17000000e+02 
536.616  1.16000000e+02 
536.580  1.01000000e+02 
536.544  9.50000000e+01 
536.509  1.26000000e+02 
536.473  1.17000000e+02 
536.437  1.01000000e+02 
536.401  1.06000000e+02 
536.365  1.00000000e+02 
536.329  1.04000000e+02 
536.293  1.36000000e+02 
536.257  1.10000000e+02 
536.221  1.28000000e+02 
536.185  1.17000000e+02 
536.149  1.03000000e+02 
536.113  1.11000000e+02 
536.077  1.18000000e+02 
536.042  9.60000000e+01 
536.006  1.26000000e+02 
535.970  1.26000000e+02 
535.934  1.30000000e+02 
535.898  1.09000000e+02 
535.862  1.25000000e+02 
535.826  1.23000000e+02 
535.790  1.20000000e+02 
535.754  1.52000000e+02 
535.718  1.33000000e+02 
535.682  1.52000000e+02 
535.646  1.32000000e+02 
535.610  1.66000000e+02 
535.574  1.55000000e+02 
535.539  1.29000000e+02 
535.503  1.68000000e+02 
535.467  1.46000000e+02 
535.431  1.55000000e+02 
535.395  1.48000000e+02 
535.359  1.75000000e+02 
535.323  1.55000000e+02 
535.287  1.77000000e+02 
535.251  1.89000000e+02 
535.215  1.71000000e+02 
535.179  1.64000000e+02 
535.143  2.00000000e+02 
535.107  1.88000000e+02 
535.072  2.05000000e+02 
535.036  2.04000000e+02 
535.000  1.85000000e+02 
534.964  2.10000000e+02 
534.928  2.02000000e+02 
534.892  1.99000000e+02 
534.856  2.40000000e+02 
534.820  1.79000000e+02 
534.784  2.41000000e+02 
534.748  2.25000000e+02 
534.712  2.07000000e+02 
534.676  2.71000000e+02 
534.640  2.38000000e+02 
534.605  2.56000000e+02 
534.569  2.86000000e+02 
534.533  2.72000000e+02 
534.497  2.62000000e+02 
534.461  2.84000000e+02 
534.425  2.80000000e+02 
534.389  2.62000000e+02 
534.353  2.86000000e+02 
534.317  3.06000000e+02 
534.281  3.16000000e+02 
534.245  3.08000000e+02 
534.209  3.04000000e+02 
534.173  3.43000000e+02 
534.138  3.62000000e+02 
534.102  3.48000000e+02 
534.066  3.36000000e+02 
534.030  3.13000000e+02 
533.994  3.42000000e+02 
533.958  3.90000000e+02 
533.922  3.72000000e+02 
533.886  3.51000000e+02 
533.850  3.92000000e+02 
533.814  3.82000000e+02 
533.778  3.83000000e+02 
533.742  4.13000000e+02 
533.706  3.94000000e+02 
533.670  3.60000000e+02 
533.635  3.94000000e+02 
533.599  4.03000000e+02 
533.563  3.73000000e+02 
533.527  4.09000000e+02 
533.491  4.05000000e+02 
533.455  3.83000000e+02 
533.419  3.74000000e+02 
533.383  3.50000000e+02 
533.347  4.01000000e+02 
533.311  3.93000000e+02 
533.275  3.72000000e+02 
533.239  3.59000000e+02 
533.203  3.36000000e+02 
533.168  3.56000000e+02 
533.132  3.64000000e+02 
533.096  3.59000000e+02 
533.060  3.59000000e+02 
533.024  3.50000000e+02 
532.988  3.08000000e+02 
532.952  3.42000000e+02 
532.916  3.47000000e+02 
532.880  2.97000000e+02 
532.844  3.14000000e+02 
532.808  2.93000000e+02 
532.772  2.96000000e+02 
532.736  2.98000000e+02 
532.701  2.71000000e+02 
532.665  2.38000000e+02 
532.629  2.42000000e+02 
532.593  2.60000000e+02 
532.557  2.45000000e+02 
532.521  2.63000000e+02 
532.485  2.38000000e+02 
532.449  2.15000000e+02 
532.413  2.28000000e+02 
532.377  2.18000000e+02 
532.341  1.93000000e+02 
532.305  2.15000000e+02 
532.269  1.74000000e+02 
532.234  2.15000000e+02 
532.198  1.79000000e+02 
532.162  1.82000000e+02 
532.126  1.70000000e+02 
532.090  1.77000000e+02 
532.054  1.93000000e+02 
532.018  1.70000000e+02 
531.982  1.69000000e+02 
531.946  1.54000000e+02 
531.910  1.64000000e+02 
531.874  1.49000000e+02 
531.838  1.42000000e+02 
531.802  1.40000000e+02 
531.766  1.38000000e+02 
531.731  1.43000000e+02 
531.695  1.36000000e+02 
531.659  1.40000000e+02 
531.623  1.26000000e+02 
531.587  1.45000000e+02 
531.551  1.28000000e+02 
531.515  1.48000000e+02 
531.479  1.17000000e+02 
531.443  1.30000000e+02 
531.407  1.25000000e+02 
531.371  1.15000000e+02 
531.335  1.19000000e+02 
531.299  1.32000000e+02 
531.264  1.08000000e+02 
531.228  1.27000000e+02 
531.192  1.01000000e+02 
531.156  1.14000000e+02 
531.120  1.06000000e+02 
531.084  1.27000000e+02 
531.048  1.28000000e+02 
531.012  1.11000000e+02 
530.976  1.05000000e+02 
530.940  1.04000000e+02 
530.904  1.09000000e+02 
530.868  1.00000000e+02 
530.832  1.11000000e+02 
530.797  1.11000000e+02 
530.761  1.05000000e+02 
530.725  1.11000000e+02 
530.689  1.06000000e+02 
530.653  1.14000000e+02 
530.617  1.01000000e+02 
530.581  8.00000000e+01 
530.545  1.09000000e+02 
530.509  1.09000000e+02 
530.473  1.05000000e+02 
530.437  9.40000000e+01 
530.401  1.07000000e+02 
530.365  9.70000000e+01 
530.330  9.30000000e+01 
530.294  8.90000000e+01 
530.258  1.02000000e+02 
530.222  1.00000000e+02 
530.186  1.12000000e+02 
530.150  1.09000000e+02 
530.114  8.90000000e+01 
530.078  9.40000000e+01 
530.042  9.30000000e+01 
530.006  9.50000000e+01 
529.970  9.40000000e+01 
529.934  9.30000000e+01 
529.898  9.10000000e+01 
529.862  9.40000000e+01 
529.827  9.70000000e+01 
529.791  7.70000000e+01 
529.755  9.20000000e+01 
529.719  8.60000000e+01 
529.683  9.00000000e+01 
529.647  1.00000000e+02 
529.611  7.80000000e+01 
529.575  9.80000000e+01 
529.539  9.80000000e+01 
529.503  1.00000000e+02 
529.467  8.60000000e+01 
529.431  8.40000000e+01 
529.395  9.10000000e+01 
529.360  8.50000000e+01 
529.324  1.05000000e+02 
529.288  1.02000000e+02 
529.252  8.10000000e+01 
529.216  8.60000000e+01 
529.180  8.30000000e+01 
529.144  8.80000000e+01 
529.108  8.00000000e+01 
529.072  9.10000000e+01 
529.036  9.00000000e+01 
529.000  8.00000000e+01 
528.964  8.10000000e+01 
528.928  9.90000000e+01 
528.893  8.10000000e+01 
528.857  8.90000000e+01 
528.821  1.02000000e+02 
528.785  7.60000000e+01 
528.749  7.40000000e+01 
528.713  8.70000000e+01 
528.677  8.90000000e+01 
528.641  9.30000000e+01 
528.605  7.80000000e+01 
528.569  6.90000000e+01 
528.533  9.00000000e+01 
528.497  9.10000000e+01 
528.461  9.80000000e+01 
528.426  8.70000000e+01 
528.390  9.30000000e+01 
528.354  7.30000000e+01 
528.318  8.90000000e+01 
528.282  7.10000000e+01 
528.246  8.80000000e+01 
528.210  8.90000000e+01 
528.174  8.70000000e+01 
528.138  8.30000000e+01 
528.102  8.00000000e+01 
528.066  8.10000000e+01 
528.030  8.10000000e+01 
527.994  8.00000000e+01 
527.958  9.60000000e+01 
527.923  1.11000000e+02 
527.887  9.50000000e+01 
527.851  8.30000000e+01 
527.815  8.70000000e+01 
527.779  8.70000000e+01 
527.743  9.90000000e+01 
527.707  8.80000000e+01 
527.671  8.80000000e+01 
527.635  9.80000000e+01 
527.599  1.04000000e+02 
527.563  8.70000000e+01 
527.527  8.60000000e+01 
527.491  7.70000000e+01 
527.456  1.08000000e+02 
527.420  8.20000000e+01 
527.384  8.50000000e+01 
527.348  8.40000000e+01 
527.312  8.10000000e+01 
527.276  7.60000000e+01 
527.240  8.70000000e+01 
527.204  8.00000000e+01 
527.168  8.40000000e+01 
527.132  8.60000000e+01 
527.096  8.40000000e+01 
527.060  6.40000000e+01 
527.024  7.40000000e+01 
526.989  1.01000000e+02 
526.953  9.50000000e+01 
526.917  9.40000000e+01 
526.881  9.00000000e+01 
526.845  9.10000000e+01 
526.809  8.50000000e+01 
526.773  8.40000000e+01 
526.737  8.50000000e+01 
526.701  7.70000000e+01 
526.665  9.00000000e+01 
526.629  8.40000000e+01 
526.593  7.40000000e+01 
526.557  8.70000000e+01 
526.522  7.50000000e+01 
526.486  1.00000000e+02 
526.450  7.60000000e+01 
526.414  8.30000000e+01 
526.378  7.20000000e+01 
526.342  8.40000000e+01 
526.306  9.30000000e+01 
526.270  9.10000000e+01 
526.234  8.60000000e+01 
526.198  8.80000000e+01 
526.162  7.60000000e+01 
526.126  9.20000000e+01 
526.090  9.60000000e+01 
526.055  8.40000000e+01 
526.019  6.90000000e+01 
525.983  8.10000000e+01 
525.947  1.01000000e+02 
525.911  1.00000000e+02 
525.875  8.30000000e+01 
525.839  9.40000000e+01 
525.803  1.03000000e+02 
525.767  9.70000000e+01 
525.731  9.00000000e+01 
525.695  8.80000000e+01 
525.659  6.20000000e+01 
525.623  7.80000000e+01 
525.587  9.30000000e+01 
525.552  9.40000000e+01 
525.516  9.30000000e+01 
525.480  9.20000000e+01 
525.444  8.50000000e+01 
525.408  8.60000000e+01 
525.372  9.00000000e+01 
525.336  9.30000000e+01 
525.300  9.60000000e+01 
525.264  1.03000000e+02 
525.228  8.90000000e+01 
525.192  9.00000000e+01 
525.156  9.00000000e+01 
525.120  9.10000000e+01 
525.085  8.10000000e+01 
525.049  7.80000000e+01 
525.013  7.30000000e+01 
[ Region 2 Curve ]
BEcenter= 643.000 
BEwidth= -11.959 
Excitation= 1486.600
Time_p_channel= 64.000  
Size= 334
648.979  1.61000000e+02 
648.944  1.54000000e+02 
648.908  1.51000000e+02 
648.872  1.48000000e+02 
648.836  1.62000000e+02 
648.800  1.48000000e+02 
648.764  1.49000000e+02 
648.728  1.57000000e+02 
648.692  1.42000000e+02 
648.656  1.63000000e+02 
648.620  1.21000000e+02 
648.584  1.51000000e+02 
648.549  1.40000000e+02 
648.513  1.35000000e+02 
648.477  1.27000000e+02 
648.441  1.42000000e+02 
648.405  1.49000000e+02 
648.369  1.71000000e+02 
648.333  1.38000000e+02 
648.297  1.65000000e+02 
648.261  1.32000000e+02 
648.225  1.40000000e+02 
648.189  1.64000000e+02 
648.153  1.69000000e+02 
648.118  1.56000000e+02 
648.082  1.43000000e+02 
648.046  1.57000000e+02 
648.010  1.37000000e+02 
647.974  1.56000000e+02 
647.938  1.42000000e+02 
647.902  1.28000000e+02 
647.866  1.56000000e+02 
647.830  1.61000000e+02 
647.794  1.68000000e+02 
647.758  1.65000000e+02 
647.723  1.55000000e+02 
647.687  1.62000000e+02 
647.651  1.55000000e+02 
647.615  1.41000000e+02 
647.579  1.52000000e+02 
647.543  1.56000000e+02 
647.507  1.65000000e+02 
647.471  1.78000000e+02 
647.435  1.57000000e+02 
647.399  1.50000000e+02 
647.363  1.55000000e+02 
647.328  1.50000000e+02 
647.292  1.34000000e+02 
647.256  1.47000000e+02 
647.220  1.47000000e+02 
647.184  1.42000000e+02 
647.148  1.42000000e+02 
647.112  1.54000000e+02 
647.076  1.44000000e+02 
647.040  1.63000000e+02 
647.004  1.45000000e+02 
646.968  1.59000000e+02 
646.932  1.52000000e+02 
646.897  1.59000000e+02 
646.861  1.49000000e+02 
646.825  1.67000000e+02 
646.789  1.76000000e+02 
646.753  1.63000000e+02 
646.717  1.43000000e+02 
646.681  1.46000000e+02 
646.645  1.67000000e+02 
646.609  1.47000000e+02 
646.573  1.61000000e+02 
646.537  1.50000000e+02 
646.502  1.72000000e+02 
646.466  1.51000000e+02 
646.430  1.39000000e+02 
646.394  1.54000000e+02 
646.358  1.44000000e+02 
646.322  1.52000000e+02 
646.286  1.41000000e+02 
646.250  1.52000000e+02 
646.214  1.56000000e+02 
646.178  1.63000000e+02 
646.142  1.76000000e+02 
646.106  1.46000000e+02 
646.071  1.77000000e+02 
646.035  1.56000000e+02 
645.999  1.66000000e+02 
645.963  1.34000000e+02 
645.927  1.40000000e+02 
645.891  1.47000000e+02 
645.855  1.54000000e+02 
645.819  1.38000000e+02 
645.783  1.56000000e+02 
645.747  1.37000000e+02 
645.711  1.35000000e+02 
645.676  1.60000000e+02 
645.640  1.70000000e+02 
645.604  1.47000000e+02 
645.568  1.39000000e+02 
645.532  1.45000000e+02 
645.496  1.58000000e+02 
645.460  1.51000000e+02 
645.424  1.57000000e+02 
645.388  1.62000000e+02 
645.352  1.69000000e+02 
645.316  1.39000000e+02 
645.280  1.53000000e+02 
645.245  1.68000000e+02 
645.209  1.70000000e+02 
645.173  1.59000000e+02 
645.137  1.72000000e+02 
645.101  1.60000000e+02 
645.065  1.50000000e+02 
645.029  1.45000000e+02 
644.993  1.49000000e+02 
644.957  1.59000000e+02 
644.921  1.53000000e+02 
644.885  1.51000000e+02 
644.850  1.55000000e+02 
644.814  1.48000000e+02 
644.778  1.47000000e+02 
644.742  1.53000000e+02 
644.706  1.69000000e+02 
644.670  1.63000000e+02 
644.634  1.68000000e+02 
644.598  1.46000000e+02 
644.562  1.38000000e+02 
644.526  1.35000000e+02 
644.490  1.56000000e+02 
644.454  1.60000000e+02 
644.419  1.70000000e+02 
644.383  1.56000000e+02 
644.347  1.77000000e+02 
644.311  1.79000000e+02 
644.275  1.81000000e+02 
644.239  1.53000000e+02 
644.203  1.73000000e+02 
644.167  1.41000000e+02 
644.131  1.73000000e+02 
644.095  1.57000000e+02 
644.059  1.72000000e+02 
644.024  1.68000000e+02 
643.988  1.69000000e+02 
643.952  1.55000000e+02 
643.916  1.74000000e+02 
643.880  1.56000000e+02 
643.844  1.57000000e+02 
643.808  1.49000000e+02 
643.772  1.66000000e+02 
643.736  1.57000000e+02 
643.700  1.44000000e+02 
643.664  1.45000000e+02 
643.628  1.51000000e+02 
643.593  1.68000000e+02 
643.557  1.69000000e+02 
643.521  1.52000000e+02 
643.485  1.56000000e+02 
643.449  1.54000000e+02 
643.413  1.47000000e+02 
643.377  1.73000000e+02 
643.341  1.72000000e+02 
643.305  1.69000000e+02 
643.269  1.64000000e+02 
643.233  1.52000000e+02 
643.198  1.70000000e+02 
643.162  1.67000000e+02 
643.126  1.68000000e+02 
643.090  1.79000000e+02 
643.054  1.62000000e+02 
643.018  1.57000000e+02 
642.982  1.63000000e+02 
642.946  1.51000000e+02 
642.910  1.72000000e+02 
642.874  1.75000000e+02 
642.838  1.39000000e+02 
642.802  1.71000000e+02 
642.767  1.64000000e+02 
642.731  1.60000000e+02 
642.695  1.56000000e+02 
642.659  1.48000000e+02 
642.623  1.90000000e+02 
642.587  1.67000000e+02 
642.551  1.53000000e+02 
642.515  1.52000000e+02 
642.479  1.68000000e+02 
642.443  1.62000000e+02 
642.407  1.57000000e+02 
642.372  1.90000000e+02 
642.336  1.51000000e+02 
642.300  1.59000000e+02 
642.264  1.77000000e+02 
642.228  1.55000000e+02 
642.192  1.73000000e+02 
642.156  1.58000000e+02 
642.120  1.67000000e+02 
642.084  1.62000000e+02 
642.048  1.58000000e+02 
642.012  1.53000000e+02 
641.976  1.59000000e+02 
641.941  1.68000000e+02 
641.905  1.63000000e+02 
641.869  1.41000000e+02 
641.833  1.40000000e+02 
641.797  1.63000000e+02 
641.761  1.45000000e+02 
641.725  1.73000000e+02 
641.689  1.56000000e+02 
641.653  1.40000000e+02 
641.617  1.49000000e+02 
641.581  1.58000000e+02 
641.546  1.46000000e+02 
641.510  1.36000000e+02 
641.474  1.66000000e+02 
641.438  1.57000000e+02 
641.402  1.47000000e+02 
641.366  1.55000000e+02 
641.330  1.75000000e+02 
641.294  1.26000000e+02 
641.258  1.74000000e+02 
641.222  1.36000000e+02 
641.186  1.32000000e+02 
641.150  1.65000000e+02 
641.115  1.63000000e+02 
641.079  1.62000000e+02 
641.043  1.48000000e+02 
641.007  1.62000000e+02 
640.971  1.49000000e+02 
640.935  1.45000000e+02 
640.899  1.55000000e+02 
640.863  1.55000000e+02 
640.827  1.68000000e+02 
640.791  1.49000000e+02 
640.755  1.56000000e+02 
640.720  1.53000000e+02 
640.684  1.37000000e+02 
640.648  1.66000000e+02 
640.612  1.72000000e+02 
640.576  1.57000000e+02 
640.540  1.35000000e+02 
640.504  1.24000000e+02 
640.468  1.47000000e+02 
640.432  1.47000000e+02 
640.396  1.53000000e+02 
640.360  1.62000000e+02 
640.324  1.43000000e+02 
640.289  1.51000000e+02 
640.253  1.65000000e+02 
640.217  1.53000000e+02 
640.181  1.30000000e+02 
640.145  1.64000000e+02 
640.109  1.62000000e+02 
640.073  1.58000000e+02 
640.037  1.56000000e+02 
640.001  1.53000000e+02 
639.965  1.28000000e+02 
639.929  1.66000000e+02 
639.894  1.38000000e+02 
639.858  1.50000000e+02 
639.822  1.63000000e+02 
639.786  1.51000000e+02 
639.750  1.47000000e+02 
639.714  1.70000000e+02 
639.678  1.33000000e+02 
639.642  1.27000000e+02 
639.606  1.58000000e+02 
639.570  1.56000000e+02 
639.534  1.39000000e+02 
639.498  1.44000000e+02 
639.463  1.71000000e+02 
639.427  1.31000000e+02 
639.391  1.56000000e+02 
639.355  1.46000000e+02 
639.319  1.54000000e+02 
639.283  1.55000000e+02 
639.247  1.69000000e+02 
639.211  1.85000000e+02 
639.175  1.43000000e+02 
639.139  1.24000000e+02 
639.103  1.62000000e+02 
639.068  1.64000000e+02 
639.032  1.48000000e+02 
638.996  1.70000000e+02 
638.960  1.53000000e+02 
638.924  1.38000000e+02 
638.888  1.57000000e+02 
638.852  1.42000000e+02 
638.816  1.37000000e+02 
638.780  1.56000000e+02 
638.744  1.20000000e+02 
638.708  1.29000000e+02 
638.672  1.52000000e+02 
638.637  1.66000000e+02 
638.601  1.57000000e+02 
638.565  1.36000000e+02 
638.529  1.65000000e+02 
638.493  1.29000000e+02 
638.457  1.54000000e+02 
638.421  1.57000000e+02 
638.385  1.97000000e+02 
638.349  1.40000000e+02 
638.313  1.68000000e+02 
638.277  1.65000000e+02 
638.242  1.38000000e+02 
638.206  1.46000000e+02 
638.170  1.41000000e+02 
638.134  1.30000000e+02 
638.098  1.47000000e+02 
638.062  1.39000000e+02 
638.026  1.57000000e+02 
637.990  1.49000000e+02 
637.954  1.40000000e+02 
637.918  1.43000000e+02 
637.882  1.45000000e+02 
637.847  1.50000000e+02 
637.811  1.66000000e+02 
637.775  1.78000000e+02 
637.739  1.40000000e+02 
637.703  1.42000000e+02 
637.667  1.34000000e+02 
637.631  1.45000000e+02 
637.595  1.56000000e+02 
637.559  1.55000000e+02 
637.523  1.41000000e+02 
637.487  1.62000000e+02 
637.451  1.48000000e+02 
637.416  1.67000000e+02 
637.380  1.66000000e+02 
637.344  1.36000000e+02 
637.308  1.43000000e+02 
637.272  1.38000000e+02 
637.236  1.36000000e+02 
637.200  1.25000000e+02 
637.164  1.51000000e+02 
637.128  1.63000000e+02 
637.092  1.51000000e+02 
637.056  1.40000000e+02 
637.021  1.66000000e+02 
