[ Experiment Parameters ]
Experiment Description= <none> 
Number_of_Regions_in_Experiment= 1 

Original_File_name= c:\alexesca\data\97072102.xps 
Instrument= ESCA-West
Date= 07-21-1997
Time=  17:17:15

[ Region 1 Parameters ]
Region_Description = au 4f dithered                     
BEcenter(eV) = 85.500000
BEwidth(eV) = 10.000000
BEstep(eV) = 0.107813
Dwell_Time(sec) = 0.500000
N_o_scans = 2  
N_o_Channels = 93  
Excitation_Energy = 0.000000  
Scan_mode = 0  (DITHERED)

[ Region 1 Curve ]
BEcenter= 85.500  
BEwidth= -9.898  
Excitation= 1486.600
Time_p_channel= 85.333  
Size= 93
90.449   5.52000000e+02 
90.342   5.40000000e+02 
90.234   5.68000000e+02 
90.126   5.64000000e+02 
90.019   5.43000000e+02 
89.911   5.48000000e+02 
89.804   5.85000000e+02 
89.696   5.90000000e+02 
89.588   5.43000000e+02 
89.481   6.17000000e+02 
89.373   6.24000000e+02 
89.266   6.29000000e+02 
89.158   6.97000000e+02 
89.051   7.27000000e+02 
88.943   8.03000000e+02 
88.835   8.32000000e+02 
88.728   8.54000000e+02 
88.620   9.70000000e+02 
88.513   1.03400000e+03 
88.405   1.11300000e+03 
88.297   1.29700000e+03 
88.190   1.34200000e+03 
88.082   1.56400000e+03 
87.975   1.65400000e+03 
87.867   1.69700000e+03 
87.759   1.91700000e+03 
87.652   1.86900000e+03 
87.544   2.04500000e+03 
87.437   2.12400000e+03 
87.329   2.14600000e+03 
87.221   2.18200000e+03 
87.114   2.20800000e+03 
87.006   2.10800000e+03 
86.899   2.03800000e+03 
86.791   1.93800000e+03 
86.684   2.03900000e+03 
86.576   1.84200000e+03 
86.468   1.59000000e+03 
86.361   1.44000000e+03 
86.253   1.21200000e+03 
86.146   1.08700000e+03 
86.038   8.57000000e+02 
85.930   8.11000000e+02 
85.823   7.76000000e+02 
85.715   7.16000000e+02 
85.608   7.86000000e+02 
85.500   7.54000000e+02 
85.392   8.35000000e+02 
85.285   9.11000000e+02 
85.177   9.37000000e+02 
85.070   1.07400000e+03 
84.962   1.20300000e+03 
84.854   1.20900000e+03 
84.747   1.43500000e+03 
84.639   1.56100000e+03 
84.532   1.68600000e+03 
84.424   1.82300000e+03 
84.316   1.91400000e+03 
84.209   2.13400000e+03 
84.101   2.27500000e+03 
83.994   2.34500000e+03 
83.886   2.40400000e+03 
83.779   2.46700000e+03 
83.671   2.49400000e+03 
83.563   2.48000000e+03 
83.456   2.51100000e+03 
83.348   2.46400000e+03 
83.241   2.29800000e+03 
83.133   2.23300000e+03 
83.025   2.10000000e+03 
82.918   1.93000000e+03 
82.810   1.54800000e+03 
82.703   1.32900000e+03 
82.595   1.05200000e+03 
82.487   8.30000000e+02 
82.380   6.02000000e+02 
82.272   5.18000000e+02 
82.165   4.44000000e+02 
82.057   3.58000000e+02 
81.949   3.25000000e+02 
81.842   2.89000000e+02 
81.734   3.13000000e+02 
81.627   2.74000000e+02 
81.519   3.01000000e+02 
81.412   2.48000000e+02 
81.304   2.34000000e+02 
81.196   2.36000000e+02 
81.089   2.42000000e+02 
80.981   2.70000000e+02 
80.874   2.27000000e+02 
80.766   2.19000000e+02 
80.658   2.21000000e+02 
80.551   2.05000000e+02 
