[ Experiment Parameters ]
Experiment Description= <none> 
Number_of_Regions_in_Experiment= 2 

Original_File_name= c:\alexesca\data\97073116.xps 
Instrument= ESCA-West
Date= 07-30-1997
Time=  21:30:20

[ Region 1 Parameters ]
Region_Description = O for XPD                          
BEcenter(eV) = 532.000000
BEwidth(eV) = 14.000000
BEstep(eV) = 0.035938
Dwell_Time(sec) = 0.250000
N_o_scans = 1  
N_o_Channels = 390  
Excitation_Energy = -0.000000  
Scan_mode = 0  (DITHERED)

[ Region 2 Parameters ]
Region_Description = Mn for XPD                         
BEcenter(eV) = 643.000000
BEwidth(eV) = 12.000000
BEstep(eV) = 0.035938
Dwell_Time(sec) = 0.250000
N_o_scans = 1  
N_o_Channels = 334  
Excitation_Energy = -0.000000  
Scan_mode = 0  (DITHERED)

[ Region 1 Curve ]
BEcenter= 532.000 
BEwidth= -13.975 
Excitation= 1486.600
Time_p_channel= 64.000  
Size= 390
538.987  2.86000000e+02 
538.951  2.81000000e+02 
538.915  2.98000000e+02 
538.880  2.85000000e+02 
538.844  2.68000000e+02 
538.808  2.90000000e+02 
538.772  2.91000000e+02 
538.736  2.87000000e+02 
538.700  2.68000000e+02 
538.664  2.95000000e+02 
538.628  2.77000000e+02 
538.592  3.16000000e+02 
538.556  2.87000000e+02 
538.520  2.86000000e+02 
538.484  2.78000000e+02 
538.448  2.91000000e+02 
538.413  2.55000000e+02 
538.377  3.04000000e+02 
538.341  2.73000000e+02 
538.305  2.83000000e+02 
538.269  2.62000000e+02 
538.233  2.75000000e+02 
538.197  2.56000000e+02 
538.161  2.86000000e+02 
538.125  3.16000000e+02 
538.089  2.67000000e+02 
538.053  2.55000000e+02 
538.017  2.85000000e+02 
537.981  2.63000000e+02 
537.945  2.63000000e+02 
537.910  2.78000000e+02 
537.874  3.09000000e+02 
537.838  2.88000000e+02 
537.802  2.78000000e+02 
537.766  2.72000000e+02 
537.730  2.89000000e+02 
537.694  2.76000000e+02 
537.658  2.33000000e+02 
537.622  3.14000000e+02 
537.586  2.84000000e+02 
537.550  2.92000000e+02 
537.514  2.72000000e+02 
537.478  2.65000000e+02 
537.443  3.13000000e+02 
537.407  2.73000000e+02 
537.371  3.01000000e+02 
537.335  2.88000000e+02 
537.299  3.10000000e+02 
537.263  2.79000000e+02 
537.227  2.73000000e+02 
537.191  2.74000000e+02 
537.155  2.87000000e+02 
537.119  2.81000000e+02 
537.083  2.85000000e+02 
537.047  3.04000000e+02 
537.011  2.64000000e+02 
536.976  3.14000000e+02 
536.940  2.75000000e+02 
536.904  2.98000000e+02 
536.868  2.67000000e+02 
536.832  3.14000000e+02 
536.796  3.11000000e+02 
536.760  2.95000000e+02 
536.724  3.14000000e+02 
536.688  2.84000000e+02 
536.652  3.23000000e+02 
536.616  3.10000000e+02 
536.580  3.03000000e+02 
536.544  3.34000000e+02 
536.509  3.26000000e+02 
536.473  3.47000000e+02 
536.437  3.26000000e+02 
536.401  3.15000000e+02 
536.365  3.27000000e+02 
536.329  3.51000000e+02 
536.293  3.72000000e+02 
536.257  3.45000000e+02 
536.221  3.48000000e+02 
536.185  3.25000000e+02 
536.149  3.43000000e+02 
536.113  3.45000000e+02 
536.077  3.40000000e+02 
536.042  3.38000000e+02 
536.006  3.80000000e+02 
535.970  4.25000000e+02 
535.934  3.88000000e+02 
535.898  3.75000000e+02 
535.862  3.98000000e+02 
535.826  4.08000000e+02 
535.790  4.24000000e+02 
535.754  4.09000000e+02 
535.718  4.13000000e+02 
535.682  4.58000000e+02 
535.646  4.47000000e+02 
535.610  4.06000000e+02 
535.574  4.54000000e+02 
535.539  5.30000000e+02 
535.503  4.77000000e+02 
535.467  5.04000000e+02 
535.431  5.05000000e+02 
535.395  5.33000000e+02 
535.359  5.17000000e+02 
535.323  5.23000000e+02 
535.287  5.64000000e+02 
535.251  5.47000000e+02 
535.215  5.30000000e+02 
535.179  6.09000000e+02 
535.143  6.16000000e+02 
535.107  6.24000000e+02 
535.072  6.46000000e+02 
535.036  6.56000000e+02 
535.000  6.83000000e+02 
534.964  6.85000000e+02 
534.928  6.61000000e+02 
534.892  7.17000000e+02 
534.856  6.72000000e+02 
534.820  7.41000000e+02 
534.784  7.06000000e+02 
534.748  7.51000000e+02 
534.712  7.28000000e+02 
534.676  7.56000000e+02 
534.640  7.91000000e+02 
534.605  8.25000000e+02 
534.569  7.95000000e+02 
534.533  8.26000000e+02 
534.497  8.05000000e+02 
534.461  8.63000000e+02 
534.425  8.86000000e+02 
534.389  9.21000000e+02 
534.353  8.38000000e+02 
534.317  8.79000000e+02 
534.281  8.82000000e+02 
534.245  9.40000000e+02 
534.209  9.37000000e+02 
534.173  9.13000000e+02 
534.138  1.00500000e+03 
534.102  1.00900000e+03 
534.066  1.00100000e+03 
534.030  9.53000000e+02 
533.994  1.02500000e+03 
533.958  9.81000000e+02 
533.922  9.93000000e+02 
533.886  1.01600000e+03 
533.850  1.07300000e+03 
533.814  1.02900000e+03 
533.778  1.06200000e+03 
533.742  1.05700000e+03 
533.706  1.07200000e+03 
533.670  1.09500000e+03 
533.635  1.14700000e+03 
533.599  1.14500000e+03 
533.563  1.08300000e+03 
533.527  1.11200000e+03 
533.491  1.09800000e+03 
533.455  1.13400000e+03 
533.419  1.11700000e+03 
533.383  1.05100000e+03 
533.347  1.14100000e+03 
533.311  1.05000000e+03 
533.275  1.05400000e+03 
533.239  1.09300000e+03 
533.203  9.97000000e+02 
533.168  1.01000000e+03 
533.132  1.01600000e+03 
533.096  1.05100000e+03 
533.060  9.61000000e+02 
533.024  9.82000000e+02 
532.988  1.03800000e+03 
532.952  1.01000000e+03 
532.916  9.64000000e+02 
532.880  9.04000000e+02 
532.844  8.98000000e+02 
532.808  9.55000000e+02 
532.772  8.80000000e+02 
532.736  9.02000000e+02 
532.701  8.75000000e+02 
532.665  8.72000000e+02 
532.629  8.93000000e+02 
532.593  8.19000000e+02 
532.557  8.08000000e+02 
532.521  7.61000000e+02 
532.485  8.06000000e+02 
532.449  7.75000000e+02 
532.413  7.64000000e+02 
532.377  7.75000000e+02 
532.341  7.10000000e+02 
532.305  7.41000000e+02 
532.269  6.81000000e+02 
532.234  6.36000000e+02 
532.198  6.38000000e+02 
532.162  6.43000000e+02 
532.126  6.80000000e+02 
532.090  6.24000000e+02 
532.054  6.13000000e+02 
532.018  5.96000000e+02 
531.982  5.74000000e+02 
531.946  5.90000000e+02 
531.910  5.65000000e+02 
531.874  5.66000000e+02 
531.838  5.17000000e+02 
531.802  5.46000000e+02 
531.766  5.54000000e+02 
531.731  5.07000000e+02 
531.695  5.01000000e+02 
531.659  5.12000000e+02 
531.623  5.18000000e+02 
531.587  4.82000000e+02 
531.551  5.05000000e+02 
531.515  4.86000000e+02 
531.479  4.73000000e+02 
531.443  5.01000000e+02 
531.407  4.98000000e+02 
531.371  5.12000000e+02 
531.335  4.94000000e+02 
531.299  4.80000000e+02 
531.264  4.11000000e+02 
531.228  4.61000000e+02 
531.192  5.09000000e+02 
531.156  4.43000000e+02 
531.120  4.80000000e+02 
531.084  4.77000000e+02 
531.048  4.47000000e+02 
531.012  4.30000000e+02 
530.976  4.46000000e+02 
530.940  4.98000000e+02 
530.904  4.33000000e+02 
530.868  4.23000000e+02 
530.832  4.18000000e+02 
530.797  4.49000000e+02 
530.761  4.58000000e+02 
530.725  4.51000000e+02 
530.689  4.52000000e+02 
530.653  4.24000000e+02 
530.617  3.89000000e+02 
530.581  4.01000000e+02 
530.545  4.06000000e+02 
530.509  3.76000000e+02 
530.473  3.95000000e+02 
530.437  3.84000000e+02 
530.401  3.73000000e+02 
530.365  3.32000000e+02 
530.330  3.77000000e+02 
530.294  3.67000000e+02 
530.258  3.42000000e+02 
530.222  3.18000000e+02 
530.186  3.33000000e+02 
530.150  3.30000000e+02 
530.114  2.79000000e+02 
530.078  3.40000000e+02 
530.042  3.12000000e+02 
530.006  2.69000000e+02 
529.970  3.19000000e+02 
529.934  2.87000000e+02 
529.898  2.80000000e+02 
529.862  2.70000000e+02 
529.827  2.90000000e+02 
529.791  2.60000000e+02 
529.755  2.90000000e+02 
529.719  2.81000000e+02 
529.683  2.78000000e+02 
529.647  2.59000000e+02 
529.611  2.72000000e+02 
529.575  2.52000000e+02 
529.539  2.55000000e+02 
529.503  2.38000000e+02 
529.467  2.34000000e+02 
529.431  2.77000000e+02 
529.395  2.64000000e+02 
529.360  2.45000000e+02 
529.324  2.62000000e+02 
529.288  2.57000000e+02 
529.252  2.51000000e+02 
529.216  2.49000000e+02 
529.180  2.41000000e+02 
529.144  2.19000000e+02 
529.108  2.41000000e+02 
529.072  2.67000000e+02 
529.036  2.63000000e+02 
529.000  2.19000000e+02 
528.964  2.51000000e+02 
528.928  2.23000000e+02 
528.893  2.58000000e+02 
528.857  2.62000000e+02 
528.821  2.12000000e+02 
528.785  2.46000000e+02 
528.749  2.50000000e+02 
528.713  2.13000000e+02 
528.677  2.40000000e+02 
528.641  2.28000000e+02 
528.605  2.28000000e+02 
528.569  2.50000000e+02 
528.533  2.14000000e+02 
528.497  2.09000000e+02 
528.461  2.28000000e+02 
528.426  2.34000000e+02 
528.390  2.54000000e+02 
528.354  2.14000000e+02 
528.318  2.37000000e+02 
528.282  2.43000000e+02 
528.246  2.24000000e+02 
528.210  2.73000000e+02 
528.174  2.33000000e+02 
528.138  2.26000000e+02 
528.102  2.54000000e+02 
528.066  2.18000000e+02 
528.030  2.30000000e+02 
527.994  2.57000000e+02 
527.958  2.43000000e+02 
527.923  2.46000000e+02 
527.887  2.19000000e+02 
527.851  2.41000000e+02 
527.815  2.36000000e+02 
527.779  2.35000000e+02 
527.743  2.45000000e+02 
527.707  2.34000000e+02 
527.671  2.43000000e+02 
527.635  2.30000000e+02 
527.599  2.17000000e+02 
527.563  2.09000000e+02 
527.527  2.31000000e+02 
527.491  2.46000000e+02 
527.456  2.22000000e+02 
527.420  2.52000000e+02 
527.384  2.32000000e+02 
527.348  2.49000000e+02 
527.312  2.39000000e+02 
527.276  2.33000000e+02 
527.240  2.26000000e+02 
527.204  2.44000000e+02 
527.168  2.31000000e+02 
527.132  2.26000000e+02 
527.096  2.45000000e+02 
527.060  2.35000000e+02 
527.024  2.15000000e+02 
526.989  2.14000000e+02 
526.953  2.44000000e+02 
526.917  2.27000000e+02 
526.881  2.27000000e+02 
526.845  2.42000000e+02 
526.809  2.42000000e+02 
526.773  2.31000000e+02 
526.737  2.34000000e+02 
526.701  2.47000000e+02 
526.665  2.55000000e+02 
526.629  2.16000000e+02 
526.593  2.44000000e+02 
526.557  2.19000000e+02 
526.522  2.40000000e+02 
526.486  2.42000000e+02 
526.450  2.50000000e+02 
526.414  2.41000000e+02 
526.378  2.33000000e+02 
526.342  2.36000000e+02 
526.306  2.43000000e+02 
526.270  2.30000000e+02 
526.234  2.35000000e+02 
526.198  2.44000000e+02 
526.162  2.37000000e+02 
526.126  2.02000000e+02 
526.090  2.57000000e+02 
526.055  2.29000000e+02 
526.019  2.36000000e+02 
525.983  2.36000000e+02 
525.947  2.31000000e+02 
525.911  2.68000000e+02 
525.875  2.33000000e+02 
525.839  2.34000000e+02 
525.803  2.17000000e+02 
525.767  2.21000000e+02 
525.731  2.50000000e+02 
525.695  2.33000000e+02 
525.659  2.47000000e+02 
525.623  2.37000000e+02 
525.587  2.28000000e+02 
525.552  2.10000000e+02 
525.516  2.40000000e+02 
525.480  2.35000000e+02 
525.444  2.08000000e+02 
525.408  2.34000000e+02 
525.372  2.48000000e+02 
525.336  2.22000000e+02 
525.300  2.36000000e+02 
525.264  2.27000000e+02 
525.228  2.29000000e+02 
525.192  2.45000000e+02 
525.156  2.20000000e+02 
525.120  2.34000000e+02 
525.085  2.43000000e+02 
525.049  2.26000000e+02 
525.013  2.21000000e+02 
[ Region 2 Curve ]
BEcenter= 643.000 
BEwidth= -11.959 
Excitation= 1486.600
Time_p_channel= 64.000  
Size= 334
648.979  4.80000000e+02 
648.944  5.25000000e+02 
648.908  4.65000000e+02 
648.872  4.93000000e+02 
648.836  5.22000000e+02 
648.800  5.06000000e+02 
648.764  5.08000000e+02 
648.728  5.42000000e+02 
648.692  4.93000000e+02 
648.656  4.75000000e+02 
648.620  4.97000000e+02 
648.584  4.81000000e+02 
648.549  4.98000000e+02 
648.513  5.47000000e+02 
648.477  5.13000000e+02 
648.441  5.02000000e+02 
648.405  4.93000000e+02 
648.369  4.90000000e+02 
648.333  4.96000000e+02 
648.297  4.83000000e+02 
648.261  5.46000000e+02 
648.225  5.19000000e+02 
648.189  4.88000000e+02 
648.153  5.23000000e+02 
648.118  5.35000000e+02 
648.082  5.44000000e+02 
648.046  5.31000000e+02 
648.010  5.04000000e+02 
647.974  5.08000000e+02 
647.938  4.79000000e+02 
647.902  5.48000000e+02 
647.866  5.16000000e+02 
647.830  5.27000000e+02 
647.794  4.94000000e+02 
647.758  4.71000000e+02 
647.723  4.61000000e+02 
647.687  5.42000000e+02 
647.651  5.36000000e+02 
647.615  4.99000000e+02 
647.579  5.07000000e+02 
647.543  5.33000000e+02 
647.507  4.80000000e+02 
647.471  5.38000000e+02 
647.435  5.35000000e+02 
647.399  4.70000000e+02 
647.363  4.68000000e+02 
647.328  4.73000000e+02 
647.292  5.16000000e+02 
647.256  4.78000000e+02 
647.220  5.14000000e+02 
647.184  4.97000000e+02 
647.148  5.15000000e+02 
647.112  5.01000000e+02 
647.076  5.04000000e+02 
647.040  5.00000000e+02 
647.004  4.66000000e+02 
646.968  5.12000000e+02 
646.932  5.19000000e+02 
646.897  5.26000000e+02 
646.861  5.13000000e+02 
646.825  5.36000000e+02 
646.789  5.15000000e+02 
646.753  5.02000000e+02 
646.717  5.35000000e+02 
646.681  5.35000000e+02 
646.645  5.05000000e+02 
646.609  4.95000000e+02 
646.573  5.18000000e+02 
646.537  5.62000000e+02 
646.502  5.10000000e+02 
646.466  4.98000000e+02 
646.430  5.59000000e+02 
646.394  5.48000000e+02 
646.358  4.75000000e+02 
646.322  5.08000000e+02 
646.286  5.14000000e+02 
646.250  5.18000000e+02 
646.214  5.00000000e+02 
646.178  4.87000000e+02 
646.142  5.32000000e+02 
646.106  5.20000000e+02 
646.071  5.08000000e+02 
646.035  4.88000000e+02 
645.999  5.09000000e+02 
645.963  4.86000000e+02 
645.927  5.03000000e+02 
645.891  5.36000000e+02 
645.855  5.33000000e+02 
645.819  5.08000000e+02 
645.783  5.12000000e+02 
645.747  4.87000000e+02 
645.711  5.23000000e+02 
645.676  4.83000000e+02 
645.640  4.74000000e+02 
645.604  5.03000000e+02 
645.568  4.99000000e+02 
645.532  4.99000000e+02 
645.496  5.33000000e+02 
645.460  5.16000000e+02 
645.424  4.85000000e+02 
645.388  5.17000000e+02 
645.352  5.28000000e+02 
645.316  5.06000000e+02 
645.280  5.21000000e+02 
645.245  5.34000000e+02 
645.209  5.35000000e+02 
645.173  5.05000000e+02 
645.137  4.87000000e+02 
645.101  5.26000000e+02 
645.065  4.76000000e+02 
645.029  4.98000000e+02 
644.993  5.80000000e+02 
644.957  5.29000000e+02 
644.921  5.17000000e+02 
644.885  5.87000000e+02 
644.850  4.97000000e+02 
644.814  5.17000000e+02 
644.778  5.36000000e+02 
644.742  5.37000000e+02 
644.706  5.04000000e+02 
644.670  5.17000000e+02 
644.634  5.20000000e+02 
644.598  5.50000000e+02 
644.562  5.26000000e+02 
644.526  5.19000000e+02 
644.490  5.63000000e+02 
644.454  5.60000000e+02 
644.419  5.50000000e+02 
644.383  6.04000000e+02 
644.347  5.60000000e+02 
644.311  5.58000000e+02 
644.275  5.37000000e+02 
644.239  5.78000000e+02 
644.203  5.27000000e+02 
644.167  5.52000000e+02 
644.131  5.43000000e+02 
644.095  5.64000000e+02 
644.059  5.66000000e+02 
644.024  5.39000000e+02 
643.988  5.31000000e+02 
643.952  5.70000000e+02 
643.916  5.55000000e+02 
643.880  5.72000000e+02 
643.844  5.72000000e+02 
643.808  5.84000000e+02 
643.772  5.38000000e+02 
643.736  5.65000000e+02 
643.700  5.19000000e+02 
643.664  5.57000000e+02 
643.628  5.40000000e+02 
643.593  5.77000000e+02 
643.557  5.74000000e+02 
643.521  5.84000000e+02 
643.485  5.79000000e+02 
643.449  6.09000000e+02 
643.413  5.82000000e+02 
643.377  5.49000000e+02 
643.341  5.65000000e+02 
643.305  5.95000000e+02 
643.269  5.08000000e+02 
643.233  5.44000000e+02 
643.198  5.82000000e+02 
643.162  5.51000000e+02 
643.126  5.83000000e+02 
643.090  5.42000000e+02 
643.054  5.76000000e+02 
643.018  6.03000000e+02 
642.982  5.49000000e+02 
642.946  5.68000000e+02 
642.910  5.48000000e+02 
642.874  6.04000000e+02 
642.838  6.03000000e+02 
642.802  5.44000000e+02 
642.767  5.85000000e+02 
642.731  5.80000000e+02 
642.695  6.15000000e+02 
642.659  5.93000000e+02 
642.623  5.54000000e+02 
642.587  6.05000000e+02 
642.551  5.61000000e+02 
642.515  6.11000000e+02 
642.479  5.98000000e+02 
642.443  5.84000000e+02 
642.407  5.84000000e+02 
642.372  5.84000000e+02 
642.336  5.68000000e+02 
642.300  6.09000000e+02 
642.264  5.95000000e+02 
642.228  5.59000000e+02 
642.192  6.10000000e+02 
642.156  5.31000000e+02 
642.120  6.23000000e+02 
642.084  5.42000000e+02 
642.048  5.98000000e+02 
642.012  5.95000000e+02 
641.976  5.54000000e+02 
641.941  6.07000000e+02 
641.905  5.52000000e+02 
641.869  6.08000000e+02 
641.833  5.66000000e+02 
641.797  6.09000000e+02 
641.761  5.50000000e+02 
641.725  5.56000000e+02 
641.689  5.74000000e+02 
641.653  5.61000000e+02 
641.617  5.29000000e+02 
641.581  5.49000000e+02 
641.546  5.46000000e+02 
641.510  5.90000000e+02 
641.474  5.14000000e+02 
641.438  5.77000000e+02 
641.402  5.72000000e+02 
641.366  5.43000000e+02 
641.330  5.38000000e+02 
641.294  5.14000000e+02 
641.258  5.13000000e+02 
641.222  5.32000000e+02 
641.186  5.39000000e+02 
641.150  5.21000000e+02 
641.115  5.39000000e+02 
641.079  5.20000000e+02 
641.043  4.83000000e+02 
641.007  5.30000000e+02 
640.971  4.70000000e+02 
640.935  5.31000000e+02 
640.899  4.82000000e+02 
640.863  5.20000000e+02 
640.827  4.92000000e+02 
640.791  5.21000000e+02 
640.755  5.19000000e+02 
640.720  5.05000000e+02 
640.684  5.05000000e+02 
640.648  4.88000000e+02 
640.612  5.07000000e+02 
640.576  5.17000000e+02 
640.540  5.02000000e+02 
640.504  5.28000000e+02 
640.468  5.00000000e+02 
640.432  4.95000000e+02 
640.396  4.62000000e+02 
640.360  4.79000000e+02 
640.324  4.83000000e+02 
640.289  4.72000000e+02 
640.253  4.56000000e+02 
640.217  5.08000000e+02 
640.181  4.44000000e+02 
640.145  4.64000000e+02 
640.109  5.17000000e+02 
640.073  4.71000000e+02 
640.037  4.75000000e+02 
640.001  4.61000000e+02 
639.965  4.85000000e+02 
639.929  4.74000000e+02 
639.894  4.69000000e+02 
639.858  5.04000000e+02 
639.822  4.88000000e+02 
639.786  4.53000000e+02 
639.750  4.57000000e+02 
639.714  4.43000000e+02 
639.678  4.69000000e+02 
639.642  4.42000000e+02 
639.606  4.52000000e+02 
639.570  4.62000000e+02 
639.534  4.90000000e+02 
639.498  4.73000000e+02 
639.463  4.82000000e+02 
639.427  4.16000000e+02 
639.391  4.71000000e+02 
639.355  4.92000000e+02 
639.319  4.44000000e+02 
639.283  4.62000000e+02 
639.247  4.43000000e+02 
639.211  4.36000000e+02 
639.175  4.56000000e+02 
639.139  4.81000000e+02 
639.103  4.33000000e+02 
639.068  4.47000000e+02 
639.032  4.95000000e+02 
638.996  4.80000000e+02 
638.960  4.60000000e+02 
638.924  4.13000000e+02 
638.888  4.56000000e+02 
638.852  4.62000000e+02 
638.816  4.53000000e+02 
638.780  4.73000000e+02 
638.744  4.63000000e+02 
638.708  4.53000000e+02 
638.672  4.64000000e+02 
638.637  4.65000000e+02 
638.601  4.73000000e+02 
638.565  4.97000000e+02 
638.529  4.25000000e+02 
638.493  4.41000000e+02 
638.457  4.65000000e+02 
638.421  4.73000000e+02 
638.385  4.47000000e+02 
638.349  4.42000000e+02 
638.313  4.63000000e+02 
638.277  4.73000000e+02 
638.242  4.76000000e+02 
638.206  4.55000000e+02 
638.170  4.63000000e+02 
638.134  4.63000000e+02 
638.098  4.87000000e+02 
638.062  4.59000000e+02 
638.026  4.75000000e+02 
637.990  4.36000000e+02 
637.954  4.70000000e+02 
637.918  4.75000000e+02 
637.882  4.31000000e+02 
637.847  4.41000000e+02 
637.811  4.68000000e+02 
637.775  4.64000000e+02 
637.739  4.45000000e+02 
637.703  4.56000000e+02 
637.667  4.72000000e+02 
637.631  4.29000000e+02 
637.595  4.88000000e+02 
637.559  4.70000000e+02 
637.523  4.67000000e+02 
637.487  4.57000000e+02 
637.451  4.76000000e+02 
637.416  4.16000000e+02 
637.380  4.44000000e+02 
637.344  4.57000000e+02 
637.308  4.25000000e+02 
637.272  4.50000000e+02 
637.236  3.96000000e+02 
637.200  4.08000000e+02 
637.164  4.61000000e+02 
637.128  4.67000000e+02 
637.092  4.26000000e+02 
637.056  4.81000000e+02 
637.021  4.60000000e+02 
