[ Experiment Parameters ]
Experiment Description= 7.2 
Number_of_Regions_in_Experiment= 1 

Original_File_name= c:\alexesca\data\97070903.xps 
Instrument= ESCA-West
Date= 07-09-1997
Time=  17:34:05

[ Region 1 Parameters ]
Region_Description = C 1s                               
BEcenter(eV) = 284.500000
BEwidth(eV) = 7.000000
BEstep(eV) = 0.056250
Dwell_Time(sec) = 1.250000
N_o_scans = 2  
N_o_Channels = 124  
Excitation_Energy = 0.000000  
Scan_mode = 0  (DITHERED)

[ Region 1 Curve ]
BEcenter= 284.500 
BEwidth= -6.898  
Excitation= 1486.600
Time_p_channel= 1280.000
Size= 124
287.949  4.78000000e+03 
287.893  4.87400000e+03 
287.837  4.91500000e+03 
287.781  4.88500000e+03 
287.725  5.06300000e+03 
287.669  4.94700000e+03 
287.613  5.09100000e+03 
287.557  5.07100000e+03 
287.501  5.05600000e+03 
287.444  5.16200000e+03 
287.388  5.17600000e+03 
287.332  5.23300000e+03 
287.276  5.23800000e+03 
287.220  5.33400000e+03 
287.164  5.52900000e+03 
287.108  5.48200000e+03 
287.052  5.65600000e+03 
286.996  5.75200000e+03 
286.940  5.64200000e+03 
286.884  5.74100000e+03 
286.828  5.86900000e+03 
286.771  5.92300000e+03 
286.715  6.02000000e+03 
286.659  6.19500000e+03 
286.603  6.35000000e+03 
286.547  6.43200000e+03 
286.491  6.57900000e+03 
286.435  6.65400000e+03 
286.379  6.67500000e+03 
286.323  6.87400000e+03 
286.267  6.85600000e+03 
286.211  7.10000000e+03 
286.155  7.23100000e+03 
286.098  7.28600000e+03 
286.042  7.52400000e+03 
285.986  7.47600000e+03 
285.930  7.78600000e+03 
285.874  7.97500000e+03 
285.818  8.01100000e+03 
285.762  8.18900000e+03 
285.706  8.30100000e+03 
285.650  8.41300000e+03 
285.594  8.29200000e+03 
285.538  8.55800000e+03 
285.481  8.33200000e+03 
285.425  8.49300000e+03 
285.369  8.56600000e+03 
285.313  8.52600000e+03 
285.257  8.58900000e+03 
285.201  8.48900000e+03 
285.145  8.25400000e+03 
285.089  8.15200000e+03 
285.033  8.20100000e+03 
284.977  8.19700000e+03 
284.921  7.80100000e+03 
284.865  7.87800000e+03 
284.808  7.80600000e+03 
284.752  7.53600000e+03 
284.696  7.42400000e+03 
284.640  7.00700000e+03 
284.584  6.93700000e+03 
284.528  6.84200000e+03 
284.472  6.62600000e+03 
284.416  6.57400000e+03 
284.360  6.32300000e+03 
284.304  6.46400000e+03 
284.248  5.94400000e+03 
284.192  6.02300000e+03 
284.135  5.73000000e+03 
284.079  5.70000000e+03 
284.023  5.60100000e+03 
283.967  5.43900000e+03 
283.911  5.35900000e+03 
283.855  5.28200000e+03 
283.799  4.99600000e+03 
283.743  5.13700000e+03 
283.687  5.03700000e+03 
283.631  4.74600000e+03 
283.575  4.64200000e+03 
283.519  4.74300000e+03 
283.462  4.70000000e+03 
283.406  4.53800000e+03 
283.350  4.55400000e+03 
283.294  4.51800000e+03 
283.238  4.42700000e+03 
283.182  4.46400000e+03 
283.126  4.34600000e+03 
283.070  4.49300000e+03 
283.014  4.28800000e+03 
282.958  4.29700000e+03 
282.902  4.35500000e+03 
282.845  4.38900000e+03 
282.789  4.31000000e+03 
282.733  4.36700000e+03 
282.677  4.25500000e+03 
282.621  4.29000000e+03 
282.565  4.19100000e+03 
282.509  4.33800000e+03 
282.453  4.32700000e+03 
282.397  4.23400000e+03 
282.341  4.21900000e+03 
282.285  4.29200000e+03 
282.229  4.31100000e+03 
282.172  4.23900000e+03 
282.116  4.33500000e+03 
282.060  4.17000000e+03 
282.004  4.16200000e+03 
281.948  4.31200000e+03 
281.892  4.23600000e+03 
281.836  4.24500000e+03 
281.780  4.29900000e+03 
281.724  4.24700000e+03 
281.668  4.25900000e+03 
281.612  4.28000000e+03 
281.556  4.34700000e+03 
281.499  4.17800000e+03 
281.443  4.26900000e+03 
281.387  4.18200000e+03 
281.331  4.21500000e+03 
281.275  4.31300000e+03 
281.219  4.24200000e+03 
281.163  4.25500000e+03 
281.107  4.29600000e+03 
281.051  4.19200000e+03 
