[ Experiment Parameters ]
Experiment Description= <none> 
Number_of_Regions_in_Experiment= 12 

Original_File_name= c:\alexesca\data\97080401.xps 
Instrument= ESCA-West
Date= 08-04-1997
Time=  10:03:43

[ Region 1 Parameters ]
Region_Description = Mn for XPD                         
BEcenter(eV) = 643.000000
BEwidth(eV) = 12.000000
BEstep(eV) = 0.035938
Dwell_Time(sec) = 1.000000
N_o_scans = 1  
N_o_Channels = 334  
Excitation_Energy = 0.000000  
Scan_mode = 0  (DITHERED)

[ Region 2 Parameters ]
Region_Description = Mn for XPD                         
BEcenter(eV) = 643.000000
BEwidth(eV) = 12.000000
BEstep(eV) = 0.035938
Dwell_Time(sec) = 1.000000
N_o_scans = 1  
N_o_Channels = 334  
Excitation_Energy = 0.000000  
Scan_mode = 0  (DITHERED)

[ Region 3 Parameters ]
Region_Description = Mn for XPD                         
BEcenter(eV) = 643.000000
BEwidth(eV) = 12.000000
BEstep(eV) = 0.035938
Dwell_Time(sec) = 1.000000
N_o_scans = 1  
N_o_Channels = 334  
Excitation_Energy = 0.000000  
Scan_mode = 0  (DITHERED)

[ Region 4 Parameters ]
Region_Description = Mn for XPD                         
BEcenter(eV) = 643.000000
BEwidth(eV) = 12.000000
BEstep(eV) = 0.035938
Dwell_Time(sec) = 1.000000
N_o_scans = 1  
N_o_Channels = 334  
Excitation_Energy = 0.000000  
Scan_mode = 0  (DITHERED)

[ Region 5 Parameters ]
Region_Description = Mn for XPD                         
BEcenter(eV) = 643.000000
BEwidth(eV) = 12.000000
BEstep(eV) = 0.035938
Dwell_Time(sec) = 1.000000
N_o_scans = 1  
N_o_Channels = 334  
Excitation_Energy = 0.000000  
Scan_mode = 0  (DITHERED)

[ Region 6 Parameters ]
Region_Description = Mn for XPD                         
BEcenter(eV) = 643.000000
BEwidth(eV) = 12.000000
BEstep(eV) = 0.035938
Dwell_Time(sec) = 1.000000
N_o_scans = 1  
N_o_Channels = 334  
Excitation_Energy = 0.000000  
Scan_mode = 0  (DITHERED)

[ Region 7 Parameters ]
Region_Description = Mn for XPD                         
BEcenter(eV) = 643.000000
BEwidth(eV) = 12.000000
BEstep(eV) = 0.035938
Dwell_Time(sec) = 1.000000
N_o_scans = 1  
N_o_Channels = 334  
Excitation_Energy = 0.000000  
Scan_mode = 0  (DITHERED)

[ Region 8 Parameters ]
Region_Description = Mn for XPD                         
BEcenter(eV) = 643.000000
BEwidth(eV) = 12.000000
BEstep(eV) = 0.035938
Dwell_Time(sec) = 1.000000
N_o_scans = 1  
N_o_Channels = 334  
Excitation_Energy = 0.000000  
Scan_mode = 0  (DITHERED)

[ Region 9 Parameters ]
Region_Description = Mn for XPD                         
BEcenter(eV) = 643.000000
BEwidth(eV) = 12.000000
BEstep(eV) = 0.035938
Dwell_Time(sec) = 1.000000
N_o_scans = 1  
N_o_Channels = 334  
Excitation_Energy = 0.000000  
Scan_mode = 0  (DITHERED)

[ Region 10 Parameters ]
Region_Description = Mn for XPD                         
BEcenter(eV) = 643.000000
BEwidth(eV) = 12.000000
BEstep(eV) = 0.035938
Dwell_Time(sec) = 1.000000
N_o_scans = 1  
N_o_Channels = 334  
Excitation_Energy = 0.000000  
Scan_mode = 0  (DITHERED)

[ Region 11 Parameters ]
Region_Description = Mn for XPD                         
BEcenter(eV) = 643.000000
BEwidth(eV) = 12.000000
BEstep(eV) = 0.035938
Dwell_Time(sec) = 1.000000
N_o_scans = 1  
N_o_Channels = 334  
Excitation_Energy = 0.000000  
Scan_mode = 0  (DITHERED)

[ Region 12 Parameters ]
Region_Description = Mn for XPD                         
BEcenter(eV) = 643.000000
BEwidth(eV) = 12.000000
BEstep(eV) = 0.035938
Dwell_Time(sec) = 1.000000
N_o_scans = 1  
N_o_Channels = 334  
Excitation_Energy = 0.000000  
Scan_mode = 0  (DITHERED)

[ Region 1 Curve ]
BEcenter= 643.000 
BEwidth= -11.959 
Excitation= 1486.600
Time_p_channel= 256.000 
Size= 334
648.979  1.76400000e+03 
648.944  1.79200000e+03 
648.908  1.80600000e+03 
648.872  1.80600000e+03 
648.836  1.75200000e+03 
648.800  1.70100000e+03 
648.764  1.81200000e+03 
648.728  1.66600000e+03 
648.692  1.74700000e+03 
648.656  1.74400000e+03 
648.620  1.78500000e+03 
648.584  1.78500000e+03 
648.549  1.73000000e+03 
648.513  1.67400000e+03 
648.477  1.78500000e+03 
648.441  1.81400000e+03 
648.405  1.73600000e+03 
648.369  1.73400000e+03 
648.333  1.71900000e+03 
648.297  1.77000000e+03 
648.261  1.76300000e+03 
648.225  1.78800000e+03 
648.189  1.71400000e+03 
648.153  1.79900000e+03 
648.118  1.78700000e+03 
648.082  1.77400000e+03 
648.046  1.81100000e+03 
648.010  1.85200000e+03 
647.974  1.84700000e+03 
647.938  1.80200000e+03 
647.902  1.77500000e+03 
647.866  1.82000000e+03 
647.830  1.83800000e+03 
647.794  1.81700000e+03 
647.758  1.81000000e+03 
647.723  1.74900000e+03 
647.687  1.78000000e+03 
647.651  1.79400000e+03 
647.615  1.79700000e+03 
647.579  1.84500000e+03 
647.543  1.76900000e+03 
647.507  1.76500000e+03 
647.471  1.70500000e+03 
647.435  1.73900000e+03 
647.399  1.82100000e+03 
647.363  1.75500000e+03 
647.328  1.77100000e+03 
647.292  1.74300000e+03 
647.256  1.75200000e+03 
647.220  1.76400000e+03 
647.184  1.75100000e+03 
647.148  1.79000000e+03 
647.112  1.85200000e+03 
647.076  1.88900000e+03 
647.040  1.77500000e+03 
647.004  1.74600000e+03 
646.968  1.82000000e+03 
646.932  1.82400000e+03 
646.897  1.75000000e+03 
646.861  1.86800000e+03 
646.825  1.79400000e+03 
646.789  1.84700000e+03 
646.753  1.72300000e+03 
646.717  1.83500000e+03 
646.681  1.76200000e+03 
646.645  1.86600000e+03 
646.609  1.79800000e+03 
646.573  1.82700000e+03 
646.537  1.79500000e+03 
646.502  1.83300000e+03 
646.466  1.88600000e+03 
646.430  1.86500000e+03 
646.394  1.85300000e+03 
646.358  1.90700000e+03 
646.322  1.84900000e+03 
646.286  1.87800000e+03 
646.250  1.87200000e+03 
646.214  1.93100000e+03 
646.178  1.93100000e+03 
646.142  1.95500000e+03 
646.106  1.96400000e+03 
646.071  1.94700000e+03 
646.035  1.82700000e+03 
645.999  1.94900000e+03 
645.963  1.91500000e+03 
645.927  1.99900000e+03 
645.891  1.95600000e+03 
645.855  1.87500000e+03 
645.819  1.95200000e+03 
645.783  1.94800000e+03 
645.747  1.93700000e+03 
645.711  1.94300000e+03 
645.676  1.99900000e+03 
645.640  1.97000000e+03 
645.604  2.01000000e+03 
645.568  2.01100000e+03 
645.532  2.05600000e+03 
645.496  2.08200000e+03 
645.460  1.99400000e+03 
645.424  2.01300000e+03 
645.388  2.11300000e+03 
645.352  2.06800000e+03 
645.316  2.03200000e+03 
645.280  2.16900000e+03 
645.245  2.16300000e+03 
645.209  2.20000000e+03 
645.173  2.20400000e+03 
645.137  2.20000000e+03 
645.101  2.17800000e+03 
645.065  2.27100000e+03 
645.029  2.17600000e+03 
644.993  2.23500000e+03 
644.957  2.26100000e+03 
644.921  2.31900000e+03 
644.885  2.22700000e+03 
644.850  2.22400000e+03 
644.814  2.28900000e+03 
644.778  2.26800000e+03 
644.742  2.29000000e+03 
644.706  2.25600000e+03 
644.670  2.35100000e+03 
644.634  2.28200000e+03 
644.598  2.40300000e+03 
644.562  2.25300000e+03 
644.526  2.41600000e+03 
644.490  2.49300000e+03 
644.454  2.51200000e+03 
644.419  2.48400000e+03 
644.383  2.34900000e+03 
644.347  2.43800000e+03 
644.311  2.47300000e+03 
644.275  2.43000000e+03 
644.239  2.46500000e+03 
644.203  2.52700000e+03 
644.167  2.47400000e+03 
644.131  2.52800000e+03 
644.095  2.50300000e+03 
644.059  2.63400000e+03 
644.024  2.51000000e+03 
643.988  2.61200000e+03 
643.952  2.56300000e+03 
643.916  2.56700000e+03 
643.880  2.63500000e+03 
643.844  2.68700000e+03 
643.808  2.64500000e+03 
643.772  2.69500000e+03 
643.736  2.63200000e+03 
643.700  2.63000000e+03 
643.664  2.62100000e+03 
643.628  2.72300000e+03 
643.593  2.72800000e+03 
643.557  2.65300000e+03 
643.521  2.75400000e+03 
643.485  2.72900000e+03 
643.449  2.72800000e+03 
643.413  2.68400000e+03 
643.377  2.66900000e+03 
643.341  2.77600000e+03 
643.305  2.64100000e+03 
643.269  2.75700000e+03 
643.233  2.81100000e+03 
643.198  2.75000000e+03 
643.162  2.64700000e+03 
643.126  2.70700000e+03 
643.090  2.71400000e+03 
643.054  2.67200000e+03 
643.018  2.73800000e+03 
642.982  2.71100000e+03 
642.946  2.67100000e+03 
642.910  2.72000000e+03 
642.874  2.65900000e+03 
642.838  2.75900000e+03 
642.802  2.64700000e+03 
642.767  2.65100000e+03 
642.731  2.69500000e+03 
642.695  2.59900000e+03 
642.659  2.57800000e+03 
642.623  2.67100000e+03 
642.587  2.63100000e+03 
642.551  2.58900000e+03 
642.515  2.56800000e+03 
642.479  2.61100000e+03 
642.443  2.50900000e+03 
642.407  2.53600000e+03 
642.372  2.44600000e+03 
642.336  2.38700000e+03 
642.300  2.49900000e+03 
642.264  2.52500000e+03 
642.228  2.42600000e+03 
642.192  2.42100000e+03 
642.156  2.38800000e+03 
642.120  2.42000000e+03 
642.084  2.34400000e+03 
642.048  2.32200000e+03 
642.012  2.32200000e+03 
641.976  2.20000000e+03 
641.941  2.24700000e+03 
641.905  2.15700000e+03 
641.869  2.14600000e+03 
641.833  2.06600000e+03 
641.797  2.16100000e+03 
641.761  2.07300000e+03 
641.725  2.10200000e+03 
641.689  2.11200000e+03 
641.653  2.12600000e+03 
641.617  1.95500000e+03 
641.581  1.94400000e+03 
641.546  1.87700000e+03 
641.510  1.86200000e+03 
641.474  1.87300000e+03 
641.438  1.91500000e+03 
641.402  1.83700000e+03 
641.366  1.80400000e+03 
641.330  1.83300000e+03 
641.294  1.74900000e+03 
641.258  1.74200000e+03 
641.222  1.71200000e+03 
641.186  1.60100000e+03 
641.150  1.69600000e+03 
641.115  1.61200000e+03 
641.079  1.58900000e+03 
641.043  1.57300000e+03 
641.007  1.50800000e+03 
640.971  1.61800000e+03 
640.935  1.53200000e+03 
640.899  1.43100000e+03 
640.863  1.55100000e+03 
640.827  1.45600000e+03 
640.791  1.45900000e+03 
640.755  1.50100000e+03 
640.720  1.43800000e+03 
640.684  1.49100000e+03 
640.648  1.45400000e+03 
640.612  1.42000000e+03 
640.576  1.37900000e+03 
640.540  1.33800000e+03 
640.504  1.36000000e+03 
640.468  1.33400000e+03 
640.432  1.39700000e+03 
640.396  1.28000000e+03 
640.360  1.39400000e+03 
640.324  1.34500000e+03 
640.289  1.28400000e+03 
640.253  1.27600000e+03 
640.217  1.31300000e+03 
640.181  1.35600000e+03 
640.145  1.34000000e+03 
640.109  1.30800000e+03 
640.073  1.29200000e+03 
640.037  1.25500000e+03 
640.001  1.26200000e+03 
639.965  1.23000000e+03 
639.929  1.27900000e+03 
639.894  1.23000000e+03 
639.858  1.25000000e+03 
639.822  1.30400000e+03 
639.786  1.27900000e+03 
639.750  1.24300000e+03 
639.714  1.31700000e+03 
639.678  1.27600000e+03 
639.642  1.23800000e+03 
639.606  1.24400000e+03 
639.570  1.21300000e+03 
639.534  1.30000000e+03 
639.498  1.30300000e+03 
639.463  1.25100000e+03 
639.427  1.27800000e+03 
639.391  1.28600000e+03 
639.355  1.28000000e+03 
639.319  1.24800000e+03 
639.283  1.23400000e+03 
639.247  1.34200000e+03 
639.211  1.26300000e+03 
639.175  1.25700000e+03 
639.139  1.28600000e+03 
639.103  1.24800000e+03 
639.068  1.30000000e+03 
639.032  1.26700000e+03 
638.996  1.29500000e+03 
638.960  1.25500000e+03 
638.924  1.24100000e+03 
638.888  1.23500000e+03 
638.852  1.27200000e+03 
638.816  1.19200000e+03 
638.780  1.20200000e+03 
638.744  1.26600000e+03 
638.708  1.28400000e+03 
638.672  1.24000000e+03 
638.637  1.27100000e+03 
638.601  1.26400000e+03 
638.565  1.26200000e+03 
638.529  1.23200000e+03 
638.493  1.16800000e+03 
638.457  1.30700000e+03 
638.421  1.28900000e+03 
638.385  1.27000000e+03 
638.349  1.20500000e+03 
638.313  1.32300000e+03 
638.277  1.23600000e+03 
638.242  1.35300000e+03 
638.206  1.32300000e+03 
638.170  1.19000000e+03 
638.134  1.28200000e+03 
638.098  1.25200000e+03 
638.062  1.22000000e+03 
638.026  1.32700000e+03 
637.990  1.27100000e+03 
637.954  1.25400000e+03 
637.918  1.26600000e+03 
637.882  1.23100000e+03 
637.847  1.19700000e+03 
637.811  1.27200000e+03 
637.775  1.18800000e+03 
637.739  1.23500000e+03 
637.703  1.28300000e+03 
637.667  1.31500000e+03 
637.631  1.19000000e+03 
637.595  1.23300000e+03 
637.559  1.27300000e+03 
637.523  1.27900000e+03 
637.487  1.25500000e+03 
637.451  1.29600000e+03 
637.416  1.22900000e+03 
637.380  1.27900000e+03 
637.344  1.25400000e+03 
637.308  1.21200000e+03 
637.272  1.16300000e+03 
637.236  1.30100000e+03 
637.200  1.28200000e+03 
637.164  1.25300000e+03 
637.128  1.24700000e+03 
637.092  1.25900000e+03 
637.056  1.25600000e+03 
637.021  1.22300000e+03 
[ Region 2 Curve ]
BEcenter= 643.000 
BEwidth= -11.959 
Excitation= 1486.600
Time_p_channel= 256.000 
Size= 334
648.979  1.67500000e+03 
648.944  1.73900000e+03 
648.908  1.81300000e+03 
648.872  1.78100000e+03 
648.836  1.80500000e+03 
648.800  1.80200000e+03 
648.764  1.85300000e+03 
648.728  1.85500000e+03 
648.692  1.75000000e+03 
648.656  1.82400000e+03 
648.620  1.84500000e+03 
648.584  1.75800000e+03 
648.549  1.76900000e+03 
648.513  1.79500000e+03 
648.477  1.67800000e+03 
648.441  1.80700000e+03 
648.405  1.76700000e+03 
648.369  1.82500000e+03 
648.333  1.80800000e+03 
648.297  1.80300000e+03 
648.261  1.79300000e+03 
648.225  1.85200000e+03 
648.189  1.80100000e+03 
648.153  1.81900000e+03 
648.118  1.77800000e+03 
648.082  1.77700000e+03 
648.046  1.78000000e+03 
648.010  1.74600000e+03 
647.974  1.83200000e+03 
647.938  1.78700000e+03 
647.902  1.70600000e+03 
647.866  1.75500000e+03 
647.830  1.77200000e+03 
647.794  1.82300000e+03 
647.758  1.84300000e+03 
647.723  1.77500000e+03 
647.687  1.74600000e+03 
647.651  1.80900000e+03 
647.615  1.86900000e+03 
647.579  1.79900000e+03 
647.543  1.82400000e+03 
647.507  1.87400000e+03 
647.471  1.74200000e+03 
647.435  1.77400000e+03 
647.399  1.80800000e+03 
647.363  1.78700000e+03 
647.328  1.84000000e+03 
647.292  1.80000000e+03 
647.256  1.84100000e+03 
647.220  1.89000000e+03 
647.184  1.83900000e+03 
647.148  1.81300000e+03 
647.112  1.86200000e+03 
647.076  1.92800000e+03 
647.040  1.88000000e+03 
647.004  1.84800000e+03 
646.968  1.82200000e+03 
646.932  1.95200000e+03 
646.897  1.83900000e+03 
646.861  1.91400000e+03 
646.825  1.88500000e+03 
646.789  1.81600000e+03 
646.753  1.90000000e+03 
646.717  1.85000000e+03 
646.681  1.84400000e+03 
646.645  1.87700000e+03 
646.609  1.86300000e+03 
646.573  1.84000000e+03 
646.537  1.86100000e+03 
646.502  1.85100000e+03 
646.466  1.79400000e+03 
646.430  1.93300000e+03 
646.394  1.87300000e+03 
646.358  1.95300000e+03 
646.322  1.89200000e+03 
646.286  1.86500000e+03 
646.250  1.92500000e+03 
646.214  2.02500000e+03 
646.178  1.93600000e+03 
646.142  1.90100000e+03 
646.106  1.95600000e+03 
646.071  1.94200000e+03 
646.035  1.99400000e+03 
645.999  2.00000000e+03 
645.963  2.08500000e+03 
645.927  1.93600000e+03 
645.891  2.04200000e+03 
645.855  2.03600000e+03 
645.819  2.11900000e+03 
645.783  2.00200000e+03 
645.747  1.99700000e+03 
645.711  2.05300000e+03 
645.676  2.06800000e+03 
645.640  2.03300000e+03 
645.604  2.04700000e+03 
645.568  2.07900000e+03 
645.532  2.07300000e+03 
645.496  2.02100000e+03 
645.460  2.08700000e+03 
645.424  2.12200000e+03 
645.388  2.14200000e+03 
645.352  2.19000000e+03 
645.316  2.20600000e+03 
645.280  2.08100000e+03 
645.245  2.22900000e+03 
645.209  2.17600000e+03 
645.173  2.12100000e+03 
645.137  2.17200000e+03 
645.101  2.25000000e+03 
645.065  2.21500000e+03 
645.029  2.26700000e+03 
644.993  2.30700000e+03 
644.957  2.29900000e+03 
644.921  2.25100000e+03 
644.885  2.28600000e+03 
644.850  2.25900000e+03 
644.814  2.35900000e+03 
644.778  2.36000000e+03 
644.742  2.34800000e+03 
644.706  2.42000000e+03 
644.670  2.42100000e+03 
644.634  2.46600000e+03 
644.598  2.40700000e+03 
644.562  2.41400000e+03 
644.526  2.37300000e+03 
644.490  2.54700000e+03 
644.454  2.40500000e+03 
644.419  2.46500000e+03 
644.383  2.49100000e+03 
644.347  2.58300000e+03 
644.311  2.55500000e+03 
644.275  2.49000000e+03 
644.239  2.48700000e+03 
644.203  2.57400000e+03 
644.167  2.65100000e+03 
644.131  2.64900000e+03 
644.095  2.62000000e+03 
644.059  2.60600000e+03 
644.024  2.58700000e+03 
643.988  2.62800000e+03 
643.952  2.64800000e+03 
643.916  2.63000000e+03 
643.880  2.70300000e+03 
643.844  2.71100000e+03 
643.808  2.66400000e+03 
643.772  2.73600000e+03 
643.736  2.62400000e+03 
643.700  2.80200000e+03 
643.664  2.69600000e+03 
643.628  2.74800000e+03 
643.593  2.68200000e+03 
643.557  2.76900000e+03 
643.521  2.71400000e+03 
643.485  2.73100000e+03 
643.449  2.74900000e+03 
643.413  2.74200000e+03 
643.377  2.84500000e+03 
643.341  2.78700000e+03 
643.305  2.81800000e+03 
643.269  2.80400000e+03 
643.233  2.75900000e+03 
643.198  2.78000000e+03 
643.162  2.69100000e+03 
643.126  2.77000000e+03 
643.090  2.76500000e+03 
643.054  2.71900000e+03 
643.018  2.82200000e+03 
642.982  2.83500000e+03 
642.946  2.68400000e+03 
642.910  2.78600000e+03 
642.874  2.67100000e+03 
642.838  2.66400000e+03 
642.802  2.75500000e+03 
642.767  2.61700000e+03 
642.731  2.75300000e+03 
642.695  2.70400000e+03 
642.659  2.57800000e+03 
642.623  2.64900000e+03 
642.587  2.60200000e+03 
642.551  2.64800000e+03 
642.515  2.67400000e+03 
642.479  2.67600000e+03 
642.443  2.57500000e+03 
642.407  2.49900000e+03 
642.372  2.60600000e+03 
642.336  2.59300000e+03 
642.300  2.47800000e+03 
642.264  2.39600000e+03 
642.228  2.51600000e+03 
642.192  2.44700000e+03 
642.156  2.44800000e+03 
642.120  2.41800000e+03 
642.084  2.44100000e+03 
642.048  2.33800000e+03 
642.012  2.34300000e+03 
641.976  2.31600000e+03 
641.941  2.32900000e+03 
641.905  2.25500000e+03 
641.869  2.24300000e+03 
641.833  2.17600000e+03 
641.797  2.21200000e+03 
641.761  2.09300000e+03 
641.725  2.13000000e+03 
641.689  2.07500000e+03 
641.653  2.05800000e+03 
641.617  2.11900000e+03 
641.581  2.05200000e+03 
641.546  2.02900000e+03 
641.510  2.04900000e+03 
641.474  1.86200000e+03 
641.438  1.90200000e+03 
641.402  1.91400000e+03 
641.366  1.93200000e+03 
641.330  1.85100000e+03 
641.294  1.81900000e+03 
641.258  1.85000000e+03 
641.222  1.71400000e+03 
641.186  1.68400000e+03 
641.150  1.70800000e+03 
641.115  1.66800000e+03 
641.079  1.68300000e+03 
641.043  1.68900000e+03 
641.007  1.59100000e+03 
640.971  1.50600000e+03 
640.935  1.48900000e+03 
640.899  1.49600000e+03 
640.863  1.56100000e+03 
640.827  1.53000000e+03 
640.791  1.55600000e+03 
640.755  1.52000000e+03 
640.720  1.47700000e+03 
640.684  1.43000000e+03 
640.648  1.40500000e+03 
640.612  1.38400000e+03 
640.576  1.43400000e+03 
640.540  1.37700000e+03 
640.504  1.42800000e+03 
640.468  1.39600000e+03 
640.432  1.36200000e+03 
640.396  1.38800000e+03 
640.360  1.34900000e+03 
640.324  1.38600000e+03 
640.289  1.33000000e+03 
640.253  1.32800000e+03 
640.217  1.35100000e+03 
640.181  1.32000000e+03 
640.145  1.28000000e+03 
640.109  1.29100000e+03 
640.073  1.38100000e+03 
640.037  1.26900000e+03 
640.001  1.28000000e+03 
639.965  1.28000000e+03 
639.929  1.27900000e+03 
639.894  1.26800000e+03 
639.858  1.30600000e+03 
639.822  1.27500000e+03 
639.786  1.25800000e+03 
639.750  1.31500000e+03 
639.714  1.29000000e+03 
639.678  1.25900000e+03 
639.642  1.27100000e+03 
639.606  1.29600000e+03 
639.570  1.28800000e+03 
639.534  1.27700000e+03 
639.498  1.27700000e+03 
639.463  1.23000000e+03 
639.427  1.26700000e+03 
639.391  1.21900000e+03 
639.355  1.30900000e+03 
639.319  1.25200000e+03 
639.283  1.23000000e+03 
639.247  1.28900000e+03 
639.211  1.29100000e+03 
639.175  1.27800000e+03 
639.139  1.24500000e+03 
639.103  1.23500000e+03 
639.068  1.29500000e+03 
639.032  1.26200000e+03 
638.996  1.29600000e+03 
638.960  1.25600000e+03 
638.924  1.34000000e+03 
638.888  1.22300000e+03 
638.852  1.26700000e+03 
638.816  1.26500000e+03 
638.780  1.27600000e+03 
638.744  1.26700000e+03 
638.708  1.29400000e+03 
638.672  1.24600000e+03 
638.637  1.21200000e+03 
638.601  1.25400000e+03 
638.565  1.23800000e+03 
638.529  1.23300000e+03 
638.493  1.23300000e+03 
638.457  1.28400000e+03 
638.421  1.23600000e+03 
638.385  1.23100000e+03 
638.349  1.21800000e+03 
638.313  1.28200000e+03 
638.277  1.24900000e+03 
638.242  1.25200000e+03 
638.206  1.26900000e+03 
638.170  1.28700000e+03 
638.134  1.29600000e+03 
638.098  1.26000000e+03 
638.062  1.28300000e+03 
638.026  1.29900000e+03 
637.990  1.21700000e+03 
637.954  1.20400000e+03 
637.918  1.21700000e+03 
637.882  1.30600000e+03 
637.847  1.26300000e+03 
637.811  1.21300000e+03 
637.775  1.23200000e+03 
637.739  1.31800000e+03 
637.703  1.30300000e+03 
637.667  1.26800000e+03 
637.631  1.22900000e+03 
637.595  1.26300000e+03 
637.559  1.28300000e+03 
637.523  1.31900000e+03 
637.487  1.17400000e+03 
637.451  1.29200000e+03 
637.416  1.24200000e+03 
637.380  1.22400000e+03 
637.344  1.21300000e+03 
637.308  1.21800000e+03 
637.272  1.30700000e+03 
637.236  1.28300000e+03 
637.200  1.20200000e+03 
637.164  1.25200000e+03 
637.128  1.22100000e+03 
637.092  1.25400000e+03 
637.056  1.26300000e+03 
637.021  1.18700000e+03 
[ Region 3 Curve ]
BEcenter= 643.000 
BEwidth= -11.959 
Excitation= 1486.600
Time_p_channel= 256.000 
Size= 334
648.979  1.73300000e+03 
648.944  1.85300000e+03 
648.908  1.80700000e+03 
648.872  1.81100000e+03 
648.836  1.83300000e+03 
648.800  1.83100000e+03 
648.764  1.90400000e+03 
648.728  1.80000000e+03 
648.692  1.94400000e+03 
648.656  1.83700000e+03 
648.620  1.76400000e+03 
648.584  1.79100000e+03 
648.549  1.87900000e+03 
648.513  1.82000000e+03 
648.477  1.83200000e+03 
648.441  1.83500000e+03 
648.405  1.90700000e+03 
648.369  1.85000000e+03 
648.333  1.88600000e+03 
648.297  1.87600000e+03 
648.261  1.87400000e+03 
648.225  1.95200000e+03 
648.189  1.86400000e+03 
648.153  1.81100000e+03 
648.118  1.87700000e+03 
648.082  1.87400000e+03 
648.046  1.84700000e+03 
648.010  1.91200000e+03 
647.974  1.97900000e+03 
647.938  1.82800000e+03 
647.902  1.90500000e+03 
647.866  1.91700000e+03 
647.830  1.87400000e+03 
647.794  1.87300000e+03 
647.758  1.88400000e+03 
647.723  1.92000000e+03 
647.687  1.75900000e+03 
647.651  1.89900000e+03 
647.615  1.86600000e+03 
647.579  1.84000000e+03 
647.543  1.87200000e+03 
647.507  1.87100000e+03 
647.471  1.86700000e+03 
647.435  1.85400000e+03 
647.399  1.84500000e+03 
647.363  1.87300000e+03 
647.328  1.89300000e+03 
647.292  1.83200000e+03 
647.256  1.88100000e+03 
647.220  1.92800000e+03 
647.184  1.87600000e+03 
647.148  1.83300000e+03 
647.112  1.94200000e+03 
647.076  1.94900000e+03 
647.040  1.90300000e+03 
647.004  2.00300000e+03 
646.968  1.96000000e+03 
646.932  1.90100000e+03 
646.897  1.87900000e+03 
646.861  1.89600000e+03 
646.825  1.95700000e+03 
646.789  1.85900000e+03 
646.753  1.97600000e+03 
646.717  1.99300000e+03 
646.681  1.94400000e+03 
646.645  1.98400000e+03 
646.609  1.93600000e+03 
646.573  1.97800000e+03 
646.537  1.98900000e+03 
646.502  1.95900000e+03 
646.466  1.93800000e+03 
646.430  1.88700000e+03 
646.394  2.01400000e+03 
646.358  2.05300000e+03 
646.322  2.00400000e+03 
646.286  1.95700000e+03 
646.250  1.97800000e+03 
646.214  2.05900000e+03 
646.178  1.98500000e+03 
646.142  2.12000000e+03 
646.106  2.06900000e+03 
646.071  2.05600000e+03 
646.035  1.98300000e+03 
645.999  2.11800000e+03 
645.963  2.07800000e+03 
645.927  1.98100000e+03 
645.891  2.14700000e+03 
645.855  2.11000000e+03 
645.819  2.07300000e+03 
645.783  2.16600000e+03 
645.747  2.11600000e+03 
645.711  2.14100000e+03 
645.676  2.19100000e+03 
645.640  2.11500000e+03 
645.604  2.17700000e+03 
645.568  2.15900000e+03 
645.532  2.20400000e+03 
645.496  2.14000000e+03 
645.460  2.30100000e+03 
645.424  2.21500000e+03 
645.388  2.22600000e+03 
645.352  2.22500000e+03 
645.316  2.27900000e+03 
645.280  2.21000000e+03 
645.245  2.24700000e+03 
645.209  2.34200000e+03 
645.173  2.31100000e+03 
645.137  2.33500000e+03 
645.101  2.31600000e+03 
645.065  2.37200000e+03 
645.029  2.40900000e+03 
644.993  2.38700000e+03 
644.957  2.45800000e+03 
644.921  2.47000000e+03 
644.885  2.40400000e+03 
644.850  2.39600000e+03 
644.814  2.44900000e+03 
644.778  2.45100000e+03 
644.742  2.48000000e+03 
644.706  2.47000000e+03 
644.670  2.53300000e+03 
644.634  2.55200000e+03 
644.598  2.58900000e+03 
644.562  2.53900000e+03 
644.526  2.56700000e+03 
644.490  2.64600000e+03 
644.454  2.69500000e+03 
644.419  2.61500000e+03 
644.383  2.57200000e+03 
644.347  2.74300000e+03 
644.311  2.66500000e+03 
644.275  2.66500000e+03 
644.239  2.70400000e+03 
644.203  2.61000000e+03 
644.167  2.75700000e+03 
644.131  2.66800000e+03 
644.095  2.77900000e+03 
644.059  2.81200000e+03 
644.024  2.71000000e+03 
643.988  2.69600000e+03 
643.952  2.66100000e+03 
643.916  2.77300000e+03 
643.880  2.78900000e+03 
643.844  2.74400000e+03 
643.808  2.70100000e+03 
643.772  2.83300000e+03 
643.736  2.86800000e+03 
643.700  2.87800000e+03 
643.664  2.79100000e+03 
643.628  2.82200000e+03 
643.593  2.85500000e+03 
643.557  2.84200000e+03 
643.521  2.97400000e+03 
643.485  2.78600000e+03 
643.449  2.83400000e+03 
643.413  2.86900000e+03 
643.377  2.90400000e+03 
643.341  2.88400000e+03 
643.305  2.85600000e+03 
643.269  2.90000000e+03 
643.233  2.90000000e+03 
643.198  2.88200000e+03 
643.162  2.95600000e+03 
643.126  2.94500000e+03 
643.090  2.84200000e+03 
643.054  2.76600000e+03 
643.018  2.94900000e+03 
642.982  2.83200000e+03 
642.946  2.72600000e+03 
642.910  2.85600000e+03 
642.874  2.87900000e+03 
642.838  2.75700000e+03 
642.802  2.83800000e+03 
642.767  2.75400000e+03 
642.731  2.71300000e+03 
642.695  2.72900000e+03 
642.659  2.78600000e+03 
642.623  2.76700000e+03 
642.587  2.61000000e+03 
642.551  2.72700000e+03 
642.515  2.59900000e+03 
642.479  2.72400000e+03 
642.443  2.59200000e+03 
642.407  2.59900000e+03 
642.372  2.60800000e+03 
642.336  2.52800000e+03 
642.300  2.60500000e+03 
642.264  2.48100000e+03 
642.228  2.53700000e+03 
642.192  2.48800000e+03 
642.156  2.43400000e+03 
642.120  2.36300000e+03 
642.084  2.44700000e+03 
642.048  2.39800000e+03 
642.012  2.35900000e+03 
641.976  2.31300000e+03 
641.941  2.35100000e+03 
641.905  2.37600000e+03 
641.869  2.24200000e+03 
641.833  2.23200000e+03 
641.797  2.21600000e+03 
641.761  2.14000000e+03 
641.725  2.18500000e+03 
641.689  2.12700000e+03 
641.653  2.12900000e+03 
641.617  2.09100000e+03 
641.581  2.06600000e+03 
641.546  2.07500000e+03 
641.510  1.93800000e+03 
641.474  1.91600000e+03 
641.438  1.87200000e+03 
641.402  1.92900000e+03 
641.366  1.83300000e+03 
641.330  1.81700000e+03 
641.294  1.91000000e+03 
641.258  1.80300000e+03 
641.222  1.67300000e+03 
641.186  1.72900000e+03 
641.150  1.69400000e+03 
641.115  1.66600000e+03 
641.079  1.68200000e+03 
641.043  1.68800000e+03 
641.007  1.64600000e+03 
640.971  1.59500000e+03 
640.935  1.57600000e+03 
640.899  1.53200000e+03 
640.863  1.54100000e+03 
640.827  1.43800000e+03 
640.791  1.53200000e+03 
640.755  1.45300000e+03 
640.720  1.52700000e+03 
640.684  1.48300000e+03 
640.648  1.41800000e+03 
640.612  1.48500000e+03 
640.576  1.45000000e+03 
640.540  1.43300000e+03 
640.504  1.35000000e+03 
640.468  1.45100000e+03 
640.432  1.37800000e+03 
640.396  1.29600000e+03 
640.360  1.46100000e+03 
640.324  1.39100000e+03 
640.289  1.34500000e+03 
640.253  1.38200000e+03 
640.217  1.33200000e+03 
640.181  1.28400000e+03 
640.145  1.31300000e+03 
640.109  1.35800000e+03 
640.073  1.36500000e+03 
640.037  1.34500000e+03 
640.001  1.37400000e+03 
639.965  1.28600000e+03 
639.929  1.33300000e+03 
639.894  1.27200000e+03 
639.858  1.37400000e+03 
639.822  1.30800000e+03 
639.786  1.33800000e+03 
639.750  1.33700000e+03 
639.714  1.30600000e+03 
639.678  1.29700000e+03 
639.642  1.30700000e+03 
639.606  1.30600000e+03 
639.570  1.29100000e+03 
639.534  1.19400000e+03 
639.498  1.30800000e+03 
639.463  1.35500000e+03 
639.427  1.35200000e+03 
639.391  1.30600000e+03 
639.355  1.34400000e+03 
639.319  1.29800000e+03 
639.283  1.27700000e+03 
639.247  1.30700000e+03 
639.211  1.28900000e+03 
639.175  1.30700000e+03 
639.139  1.32800000e+03 
639.103  1.29000000e+03 
639.068  1.29100000e+03 
639.032  1.26200000e+03 
638.996  1.28300000e+03 
638.960  1.33300000e+03 
638.924  1.30900000e+03 
638.888  1.30900000e+03 
638.852  1.32500000e+03 
638.816  1.31000000e+03 
638.780  1.30200000e+03 
638.744  1.24200000e+03 
638.708  1.28600000e+03 
638.672  1.35400000e+03 
638.637  1.29100000e+03 
638.601  1.23100000e+03 
638.565  1.30700000e+03 
638.529  1.25500000e+03 
638.493  1.25100000e+03 
638.457  1.23300000e+03 
638.421  1.26700000e+03 
638.385  1.27000000e+03 
638.349  1.32400000e+03 
638.313  1.23800000e+03 
638.277  1.25700000e+03 
638.242  1.21200000e+03 
638.206  1.26000000e+03 
638.170  1.27200000e+03 
638.134  1.27800000e+03 
638.098  1.28800000e+03 
638.062  1.32400000e+03 
638.026  1.35000000e+03 
637.990  1.31500000e+03 
637.954  1.27300000e+03 
637.918  1.30400000e+03 
637.882  1.34600000e+03 
637.847  1.31200000e+03 
637.811  1.27600000e+03 
637.775  1.25100000e+03 
637.739  1.34000000e+03 
637.703  1.23600000e+03 
637.667  1.30300000e+03 
637.631  1.29600000e+03 
637.595  1.28800000e+03 
637.559  1.26300000e+03 
637.523  1.27500000e+03 
637.487  1.34000000e+03 
637.451  1.26800000e+03 
637.416  1.25400000e+03 
637.380  1.29500000e+03 
637.344  1.30100000e+03 
637.308  1.30500000e+03 
637.272  1.27300000e+03 
637.236  1.22500000e+03 
637.200  1.24100000e+03 
637.164  1.26200000e+03 
637.128  1.31600000e+03 
637.092  1.25700000e+03 
637.056  1.23300000e+03 
637.021  1.28800000e+03 
[ Region 4 Curve ]
BEcenter= 643.000 
BEwidth= -11.959 
Excitation= 1486.600
Time_p_channel= 256.000 
Size= 334
648.979  1.95300000e+03 
648.944  1.83900000e+03 
648.908  1.97300000e+03 
648.872  1.92000000e+03 
648.836  2.03100000e+03 
648.800  1.95600000e+03 
648.764  1.97400000e+03 
648.728  1.96700000e+03 
648.692  1.94300000e+03 
648.656  1.89600000e+03 
648.620  2.01300000e+03 
648.584  1.96400000e+03 
648.549  1.92800000e+03 
648.513  1.90100000e+03 
648.477  1.96200000e+03 
648.441  1.90600000e+03 
648.405  1.89900000e+03 
648.369  1.90200000e+03 
648.333  1.98100000e+03 
648.297  1.98100000e+03 
648.261  1.89000000e+03 
648.225  2.00100000e+03 
648.189  1.85700000e+03 
648.153  1.89000000e+03 
648.118  1.95700000e+03 
648.082  1.96900000e+03 
648.046  2.01800000e+03 
648.010  1.95100000e+03 
647.974  2.03300000e+03 
647.938  1.95300000e+03 
647.902  1.96500000e+03 
647.866  1.93000000e+03 
647.830  1.98000000e+03 
647.794  2.01500000e+03 
647.758  1.93900000e+03 
647.723  1.91500000e+03 
647.687  1.92000000e+03 
647.651  1.97200000e+03 
647.615  1.94700000e+03 
647.579  1.97700000e+03 
647.543  2.00700000e+03 
647.507  1.96100000e+03 
647.471  1.94400000e+03 
647.435  2.03500000e+03 
647.399  2.00600000e+03 
647.363  1.96300000e+03 
647.328  2.03500000e+03 
647.292  1.96600000e+03 
647.256  2.00800000e+03 
647.220  2.03800000e+03 
647.184  2.03800000e+03 
647.148  1.99600000e+03 
647.112  2.05400000e+03 
647.076  2.08100000e+03 
647.040  2.01300000e+03 
647.004  2.04600000e+03 
646.968  2.04600000e+03 
646.932  2.05100000e+03 
646.897  2.03300000e+03 
646.861  2.08700000e+03 
646.825  2.01000000e+03 
646.789  2.01000000e+03 
646.753  2.02800000e+03 
646.717  2.16500000e+03 
646.681  2.03100000e+03 
646.645  1.95800000e+03 
646.609  2.08000000e+03 
646.573  2.04000000e+03 
646.537  2.16300000e+03 
646.502  2.04900000e+03 
646.466  2.08900000e+03 
646.430  2.12700000e+03 
646.394  2.05700000e+03 
646.358  2.15600000e+03 
646.322  2.05100000e+03 
646.286  2.15900000e+03 
646.250  2.10500000e+03 
646.214  2.14000000e+03 
646.178  2.22100000e+03 
646.142  2.16700000e+03 
646.106  2.12700000e+03 
646.071  2.18600000e+03 
646.035  2.17500000e+03 
645.999  2.24100000e+03 
645.963  2.21600000e+03 
645.927  2.23600000e+03 
645.891  2.24300000e+03 
645.855  2.25500000e+03 
645.819  2.30600000e+03 
645.783  2.19200000e+03 
645.747  2.28800000e+03 
645.711  2.36400000e+03 
645.676  2.37400000e+03 
645.640  2.30400000e+03 
645.604  2.30100000e+03 
645.568  2.44100000e+03 
645.532  2.33100000e+03 
645.496  2.36200000e+03 
645.460  2.31900000e+03 
645.424  2.35600000e+03 
645.388  2.35100000e+03 
645.352  2.46400000e+03 
645.316  2.35500000e+03 
645.280  2.41600000e+03 
645.245  2.47200000e+03 
645.209  2.36000000e+03 
645.173  2.51500000e+03 
645.137  2.47100000e+03 
645.101  2.49500000e+03 
645.065  2.65200000e+03 
645.029  2.52300000e+03 
644.993  2.63300000e+03 
644.957  2.62300000e+03 
644.921  2.58500000e+03 
644.885  2.61100000e+03 
644.850  2.64400000e+03 
644.814  2.67100000e+03 
644.778  2.63500000e+03 
644.742  2.70900000e+03 
644.706  2.70000000e+03 
644.670  2.70700000e+03 
644.634  2.71500000e+03 
644.598  2.75600000e+03 
644.562  2.69800000e+03 
644.526  2.74200000e+03 
644.490  2.70000000e+03 
644.454  2.77400000e+03 
644.419  2.70300000e+03 
644.383  2.61300000e+03 
644.347  2.78400000e+03 
644.311  2.83100000e+03 
644.275  2.91500000e+03 
644.239  2.85900000e+03 
644.203  2.94600000e+03 
644.167  2.98100000e+03 
644.131  2.91900000e+03 
644.095  2.84600000e+03 
644.059  2.81600000e+03 
644.024  2.97300000e+03 
643.988  2.87400000e+03 
643.952  2.93200000e+03 
643.916  3.00100000e+03 
643.880  2.91300000e+03 
643.844  3.00800000e+03 
643.808  3.01800000e+03 
643.772  2.99200000e+03 
643.736  2.91500000e+03 
643.700  2.96900000e+03 
643.664  3.02200000e+03 
643.628  2.96700000e+03 
643.593  2.98900000e+03 
643.557  3.07700000e+03 
643.521  3.06700000e+03 
643.485  3.00000000e+03 
643.449  3.00700000e+03 
643.413  2.96600000e+03 
643.377  3.08700000e+03 
643.341  3.03100000e+03 
643.305  3.01600000e+03 
643.269  2.96000000e+03 
643.233  2.99800000e+03 
643.198  3.05300000e+03 
643.162  3.06700000e+03 
643.126  3.01600000e+03 
643.090  2.95700000e+03 
643.054  2.97000000e+03 
643.018  3.03000000e+03 
642.982  2.89800000e+03 
642.946  2.95300000e+03 
642.910  2.99600000e+03 
642.874  2.93000000e+03 
642.838  2.93400000e+03 
642.802  2.98700000e+03 
642.767  2.84600000e+03 
642.731  2.95000000e+03 
642.695  2.86000000e+03 
642.659  2.75100000e+03 
642.623  2.83700000e+03 
642.587  2.75800000e+03 
642.551  2.82200000e+03 
642.515  2.66000000e+03 
642.479  2.80800000e+03 
642.443  2.73600000e+03 
642.407  2.67700000e+03 
642.372  2.74100000e+03 
642.336  2.76500000e+03 
642.300  2.60200000e+03 
642.264  2.54600000e+03 
642.228  2.50100000e+03 
642.192  2.53100000e+03 
642.156  2.44200000e+03 
642.120  2.44500000e+03 
642.084  2.43600000e+03 
642.048  2.43000000e+03 
642.012  2.35400000e+03 
641.976  2.29000000e+03 
641.941  2.29600000e+03 
641.905  2.29900000e+03 
641.869  2.28400000e+03 
641.833  2.16800000e+03 
641.797  2.29900000e+03 
641.761  2.16800000e+03 
641.725  2.15400000e+03 
641.689  2.07600000e+03 
641.653  2.06200000e+03 
641.617  2.03600000e+03 
641.581  2.07300000e+03 
641.546  2.02700000e+03 
641.510  2.01800000e+03 
641.474  1.98600000e+03 
641.438  1.94000000e+03 
641.402  1.85600000e+03 
641.366  1.85900000e+03 
641.330  1.85300000e+03 
641.294  1.80800000e+03 
641.258  1.88000000e+03 
641.222  1.80300000e+03 
641.186  1.74800000e+03 
641.150  1.74400000e+03 
641.115  1.68900000e+03 
641.079  1.71000000e+03 
641.043  1.64900000e+03 
641.007  1.64300000e+03 
640.971  1.64700000e+03 
640.935  1.59100000e+03 
640.899  1.58400000e+03 
640.863  1.56600000e+03 
640.827  1.52500000e+03 
640.791  1.52900000e+03 
640.755  1.51400000e+03 
640.720  1.54400000e+03 
640.684  1.40200000e+03 
640.648  1.44600000e+03 
640.612  1.42400000e+03 
640.576  1.46500000e+03 
640.540  1.44800000e+03 
640.504  1.44600000e+03 
640.468  1.40700000e+03 
640.432  1.40000000e+03 
640.396  1.31200000e+03 
640.360  1.38600000e+03 
640.324  1.38400000e+03 
640.289  1.42700000e+03 
640.253  1.38400000e+03 
640.217  1.41200000e+03 
640.181  1.41800000e+03 
640.145  1.36400000e+03 
640.109  1.44700000e+03 
640.073  1.30900000e+03 
640.037  1.36700000e+03 
640.001  1.35500000e+03 
639.965  1.42200000e+03 
639.929  1.41200000e+03 
639.894  1.35900000e+03 
639.858  1.35500000e+03 
639.822  1.39800000e+03 
639.786  1.33100000e+03 
639.750  1.28500000e+03 
639.714  1.40600000e+03 
639.678  1.32400000e+03 
639.642  1.35900000e+03 
639.606  1.30500000e+03 
639.570  1.34300000e+03 
639.534  1.28300000e+03 
639.498  1.30700000e+03 
639.463  1.35000000e+03 
639.427  1.31900000e+03 
639.391  1.37900000e+03 
639.355  1.32400000e+03 
639.319  1.38600000e+03 
639.283  1.35600000e+03 
639.247  1.36000000e+03 
639.211  1.32400000e+03 
639.175  1.38600000e+03 
639.139  1.37000000e+03 
639.103  1.33300000e+03 
639.068  1.37000000e+03 
639.032  1.36900000e+03 
638.996  1.31400000e+03 
638.960  1.30400000e+03 
638.924  1.32200000e+03 
638.888  1.29900000e+03 
638.852  1.30400000e+03 
638.816  1.30000000e+03 
638.780  1.31400000e+03 
638.744  1.35600000e+03 
638.708  1.28300000e+03 
638.672  1.33600000e+03 
638.637  1.34800000e+03 
638.601  1.33900000e+03 
638.565  1.30600000e+03 
638.529  1.34300000e+03 
638.493  1.35100000e+03 
638.457  1.37100000e+03 
638.421  1.34400000e+03 
638.385  1.35400000e+03 
638.349  1.35200000e+03 
638.313  1.32000000e+03 
638.277  1.40200000e+03 
638.242  1.35700000e+03 
638.206  1.38300000e+03 
638.170  1.28300000e+03 
638.134  1.33900000e+03 
638.098  1.29400000e+03 
638.062  1.33700000e+03 
638.026  1.36000000e+03 
637.990  1.32700000e+03 
637.954  1.33200000e+03 
637.918  1.40100000e+03 
637.882  1.33700000e+03 
637.847  1.39100000e+03 
637.811  1.34200000e+03 
637.775  1.29800000e+03 
637.739  1.31100000e+03 
637.703  1.37400000e+03 
637.667  1.38300000e+03 
637.631  1.32000000e+03 
637.595  1.32300000e+03 
637.559  1.24700000e+03 
637.523  1.29700000e+03 
637.487  1.33200000e+03 
637.451  1.39800000e+03 
637.416  1.31200000e+03 
637.380  1.34400000e+03 
637.344  1.33800000e+03 
637.308  1.32000000e+03 
637.272  1.34800000e+03 
637.236  1.37900000e+03 
637.200  1.32900000e+03 
637.164  1.38300000e+03 
637.128  1.28500000e+03 
637.092  1.29200000e+03 
637.056  1.30200000e+03 
637.021  1.42200000e+03 
[ Region 5 Curve ]
BEcenter= 643.000 
BEwidth= -11.959 
Excitation= 1486.600
Time_p_channel= 256.000 
Size= 334
648.979  1.90600000e+03 
648.944  1.95400000e+03 
648.908  1.99300000e+03 
648.872  2.07700000e+03 
648.836  2.01300000e+03 
648.800  1.99600000e+03 
648.764  2.01100000e+03 
648.728  2.06600000e+03 
648.692  2.07000000e+03 
648.656  1.99300000e+03 
648.620  2.03400000e+03 
648.584  2.03800000e+03 
648.549  1.97300000e+03 
648.513  1.93800000e+03 
648.477  2.03600000e+03 
648.441  1.92100000e+03 
648.405  2.04600000e+03 
648.369  2.00000000e+03 
648.333  1.99700000e+03 
648.297  2.02600000e+03 
648.261  2.01900000e+03 
648.225  2.01800000e+03 
648.189  1.97700000e+03 
648.153  1.95900000e+03 
648.118  2.00100000e+03 
648.082  1.98100000e+03 
648.046  2.06400000e+03 
648.010  2.07400000e+03 
647.974  1.97200000e+03 
647.938  2.03000000e+03 
647.902  2.03800000e+03 
647.866  2.08000000e+03 
647.830  2.03600000e+03 
647.794  2.06100000e+03 
647.758  2.03400000e+03 
647.723  1.96500000e+03 
647.687  2.00000000e+03 
647.651  2.00900000e+03 
647.615  2.11100000e+03 
647.579  2.08600000e+03 
647.543  1.97500000e+03 
647.507  2.01600000e+03 
647.471  2.07800000e+03 
647.435  2.02300000e+03 
647.399  2.12300000e+03 
647.363  2.09400000e+03 
647.328  2.14900000e+03 
647.292  2.13600000e+03 
647.256  2.03100000e+03 
647.220  2.11600000e+03 
647.184  1.99700000e+03 
647.148  2.03400000e+03 
647.112  2.13300000e+03 
647.076  2.11000000e+03 
647.040  2.08900000e+03 
647.004  2.05300000e+03 
646.968  2.16900000e+03 
646.932  2.12200000e+03 
646.897  2.13000000e+03 
646.861  2.09300000e+03 
646.825  2.13200000e+03 
646.789  2.14300000e+03 
646.753  2.08300000e+03 
646.717  2.13800000e+03 
646.681  2.19100000e+03 
646.645  2.19100000e+03 
646.609  2.19000000e+03 
646.573  2.14300000e+03 
646.537  2.20300000e+03 
646.502  2.19200000e+03 
646.466  2.16400000e+03 
646.430  2.21100000e+03 
646.394  2.18800000e+03 
646.358  2.16200000e+03 
646.322  2.27500000e+03 
646.286  2.30300000e+03 
646.250  2.25900000e+03 
646.214  2.29000000e+03 
646.178  2.26300000e+03 
646.142  2.28700000e+03 
646.106  2.26100000e+03 
646.071  2.24800000e+03 
646.035  2.22200000e+03 
645.999  2.36900000e+03 
645.963  2.35100000e+03 
645.927  2.37400000e+03 
645.891  2.27700000e+03 
645.855  2.34100000e+03 
645.819  2.40400000e+03 
645.783  2.33400000e+03 
645.747  2.47400000e+03 
645.711  2.36000000e+03 
645.676  2.49600000e+03 
645.640  2.26200000e+03 
645.604  2.51800000e+03 
645.568  2.43600000e+03 
645.532  2.46200000e+03 
645.496  2.51600000e+03 
645.460  2.55400000e+03 
645.424  2.50900000e+03 
645.388  2.52200000e+03 
645.352  2.54200000e+03 
645.316  2.56100000e+03 
645.280  2.55600000e+03 
645.245  2.56700000e+03 
645.209  2.72700000e+03 
645.173  2.67600000e+03 
645.137  2.70500000e+03 
645.101  2.71800000e+03 
645.065  2.64000000e+03 
645.029  2.74600000e+03 
644.993  2.73800000e+03 
644.957  2.79600000e+03 
644.921  2.71100000e+03 
644.885  2.81500000e+03 
644.850  2.79200000e+03 
644.814  2.77500000e+03 
644.778  2.91900000e+03 
644.742  2.83100000e+03 
644.706  2.90400000e+03 
644.670  2.83900000e+03 
644.634  2.90500000e+03 
644.598  2.89700000e+03 
644.562  2.85900000e+03 
644.526  2.82100000e+03 
644.490  2.91400000e+03 
644.454  2.95300000e+03 
644.419  2.97700000e+03 
644.383  2.93500000e+03 
644.347  3.06300000e+03 
644.311  2.86600000e+03 
644.275  2.99000000e+03 
644.239  3.07100000e+03 
644.203  3.10700000e+03 
644.167  3.01800000e+03 
644.131  3.02100000e+03 
644.095  3.11700000e+03 
644.059  3.14200000e+03 
644.024  3.09900000e+03 
643.988  3.15700000e+03 
643.952  3.13100000e+03 
643.916  3.14400000e+03 
643.880  3.06000000e+03 
643.844  3.02400000e+03 
643.808  3.06700000e+03 
643.772  3.03800000e+03 
643.736  3.17800000e+03 
643.700  3.12000000e+03 
643.664  3.09900000e+03 
643.628  3.24400000e+03 
643.593  3.21900000e+03 
643.557  3.18300000e+03 
643.521  3.12600000e+03 
643.485  3.13900000e+03 
643.449  3.22600000e+03 
643.413  3.22700000e+03 
643.377  3.12700000e+03 
643.341  3.14900000e+03 
643.305  3.25800000e+03 
643.269  3.20400000e+03 
643.233  3.15300000e+03 
643.198  3.12700000e+03 
643.162  3.03000000e+03 
643.126  3.14200000e+03 
643.090  3.15400000e+03 
643.054  3.07200000e+03 
643.018  3.08800000e+03 
642.982  3.04300000e+03 
642.946  2.99300000e+03 
642.910  3.04800000e+03 
642.874  3.03000000e+03 
642.838  3.06500000e+03 
642.802  2.96800000e+03 
642.767  2.98500000e+03 
642.731  2.85800000e+03 
642.695  3.04400000e+03 
642.659  2.94900000e+03 
642.623  2.95900000e+03 
642.587  2.91600000e+03 
642.551  2.79300000e+03 
642.515  2.83400000e+03 
642.479  2.80400000e+03 
642.443  2.79200000e+03 
642.407  2.69900000e+03 
642.372  2.74700000e+03 
642.336  2.78200000e+03 
642.300  2.74100000e+03 
642.264  2.73200000e+03 
642.228  2.71100000e+03 
642.192  2.66500000e+03 
642.156  2.60200000e+03 
642.120  2.60900000e+03 
642.084  2.55800000e+03 
642.048  2.48100000e+03 
642.012  2.52200000e+03 
641.976  2.45600000e+03 
641.941  2.43400000e+03 
641.905  2.43800000e+03 
641.869  2.36700000e+03 
641.833  2.31100000e+03 
641.797  2.21400000e+03 
641.761  2.39800000e+03 
641.725  2.31900000e+03 
641.689  2.13600000e+03 
641.653  2.18600000e+03 
641.617  2.14600000e+03 
641.581  2.14500000e+03 
641.546  2.00300000e+03 
641.510  2.06800000e+03 
641.474  1.96400000e+03 
641.438  1.94300000e+03 
641.402  2.03900000e+03 
641.366  1.92200000e+03 
641.330  1.84600000e+03 
641.294  1.86700000e+03 
641.258  1.81400000e+03 
641.222  1.86000000e+03 
641.186  1.79900000e+03 
641.150  1.77400000e+03 
641.115  1.76800000e+03 
641.079  1.75600000e+03 
641.043  1.71500000e+03 
641.007  1.73800000e+03 
640.971  1.64500000e+03 
640.935  1.68400000e+03 
640.899  1.67200000e+03 
640.863  1.58300000e+03 
640.827  1.51200000e+03 
640.791  1.61300000e+03 
640.755  1.58000000e+03 
640.720  1.54600000e+03 
640.684  1.55600000e+03 
640.648  1.59300000e+03 
640.612  1.56700000e+03 
640.576  1.52400000e+03 
640.540  1.46200000e+03 
640.504  1.47800000e+03 
640.468  1.57800000e+03 
640.432  1.50500000e+03 
640.396  1.43600000e+03 
640.360  1.48100000e+03 
640.324  1.47000000e+03 
640.289  1.48600000e+03 
640.253  1.46000000e+03 
640.217  1.39600000e+03 
640.181  1.47100000e+03 
640.145  1.45300000e+03 
640.109  1.40000000e+03 
640.073  1.36900000e+03 
640.037  1.39500000e+03 
640.001  1.43900000e+03 
639.965  1.39900000e+03 
639.929  1.39100000e+03 
639.894  1.40300000e+03 
639.858  1.38800000e+03 
639.822  1.40900000e+03 
639.786  1.40100000e+03 
639.750  1.37200000e+03 
639.714  1.40300000e+03 
639.678  1.38300000e+03 
639.642  1.35200000e+03 
639.606  1.48600000e+03 
639.570  1.35200000e+03 
639.534  1.39100000e+03 
639.498  1.43200000e+03 
639.463  1.41700000e+03 
639.427  1.46900000e+03 
639.391  1.35300000e+03 
639.355  1.38100000e+03 
639.319  1.35500000e+03 
639.283  1.34700000e+03 
639.247  1.35100000e+03 
639.211  1.34000000e+03 
639.175  1.36400000e+03 
639.139  1.40000000e+03 
639.103  1.32500000e+03 
639.068  1.37000000e+03 
639.032  1.31900000e+03 
638.996  1.40200000e+03 
638.960  1.39300000e+03 
638.924  1.37400000e+03 
638.888  1.34400000e+03 
638.852  1.37700000e+03 
638.816  1.39600000e+03 
638.780  1.41300000e+03 
638.744  1.32300000e+03 
638.708  1.36000000e+03 
638.672  1.30700000e+03 
638.637  1.43900000e+03 
638.601  1.37100000e+03 
638.565  1.29900000e+03 
638.529  1.45800000e+03 
638.493  1.38000000e+03 
638.457  1.30600000e+03 
638.421  1.42400000e+03 
638.385  1.36700000e+03 
638.349  1.35100000e+03 
638.313  1.32100000e+03 
638.277  1.32100000e+03 
638.242  1.39400000e+03 
638.206  1.33600000e+03 
638.170  1.39200000e+03 
638.134  1.35300000e+03 
638.098  1.39200000e+03 
638.062  1.36200000e+03 
638.026  1.43700000e+03 
637.990  1.36600000e+03 
637.954  1.37600000e+03 
637.918  1.44100000e+03 
637.882  1.38700000e+03 
637.847  1.35000000e+03 
637.811  1.35600000e+03 
637.775  1.33900000e+03 
637.739  1.39500000e+03 
637.703  1.34600000e+03 
637.667  1.31300000e+03 
637.631  1.32500000e+03 
637.595  1.43200000e+03 
637.559  1.41200000e+03 
637.523  1.33200000e+03 
637.487  1.46100000e+03 
637.451  1.35800000e+03 
637.416  1.31300000e+03 
637.380  1.41500000e+03 
637.344  1.32700000e+03 
637.308  1.40900000e+03 
637.272  1.39100000e+03 
637.236  1.25800000e+03 
637.200  1.38000000e+03 
637.164  1.33800000e+03 
637.128  1.40700000e+03 
637.092  1.38200000e+03 
637.056  1.35200000e+03 
637.021  1.42900000e+03 
[ Region 6 Curve ]
BEcenter= 643.000 
BEwidth= -11.959 
Excitation= 1486.600
Time_p_channel= 256.000 
Size= 334
648.979  2.07900000e+03 
648.944  2.05000000e+03 
648.908  2.11700000e+03 
648.872  2.01800000e+03 
648.836  2.01300000e+03 
648.800  2.10100000e+03 
648.764  2.11900000e+03 
648.728  2.04100000e+03 
648.692  2.14600000e+03 
648.656  2.09800000e+03 
648.620  2.18100000e+03 
648.584  2.13400000e+03 
648.549  2.08100000e+03 
648.513  2.07600000e+03 
648.477  2.14200000e+03 
648.441  2.05100000e+03 
648.405  2.09200000e+03 
648.369  1.98900000e+03 
648.333  2.08900000e+03 
648.297  2.04300000e+03 
648.261  2.08300000e+03 
648.225  2.15000000e+03 
648.189  2.12000000e+03 
648.153  2.04100000e+03 
648.118  2.06700000e+03 
648.082  2.11400000e+03 
648.046  2.16500000e+03 
648.010  2.04200000e+03 
647.974  2.09700000e+03 
647.938  2.06900000e+03 
647.902  2.04300000e+03 
647.866  2.10300000e+03 
647.830  2.10900000e+03 
647.794  2.16500000e+03 
647.758  2.10500000e+03 
647.723  2.14600000e+03 
647.687  2.17200000e+03 
647.651  2.08300000e+03 
647.615  2.11300000e+03 
647.579  2.25400000e+03 
647.543  2.09900000e+03 
647.507  2.18900000e+03 
647.471  2.11200000e+03 
647.435  2.09300000e+03 
647.399  2.13900000e+03 
647.363  2.19600000e+03 
647.328  2.19000000e+03 
647.292  2.16800000e+03 
647.256  2.21100000e+03 
647.220  2.18000000e+03 
647.184  2.22100000e+03 
647.148  2.22400000e+03 
647.112  2.22600000e+03 
647.076  2.15900000e+03 
647.040  2.19900000e+03 
647.004  2.18800000e+03 
646.968  2.20200000e+03 
646.932  2.18800000e+03 
646.897  2.26100000e+03 
646.861  2.20100000e+03 
646.825  2.21300000e+03 
646.789  2.28000000e+03 
646.753  2.23600000e+03 
646.717  2.28800000e+03 
646.681  2.28100000e+03 
646.645  2.21500000e+03 
646.609  2.28600000e+03 
646.573  2.32400000e+03 
646.537  2.36500000e+03 
646.502  2.27700000e+03 
646.466  2.31600000e+03 
646.430  2.40900000e+03 
646.394  2.37500000e+03 
646.358  2.27800000e+03 
646.322  2.27100000e+03 
646.286  2.33800000e+03 
646.250  2.33300000e+03 
646.214  2.22700000e+03 
646.178  2.36500000e+03 
646.142  2.36200000e+03 
646.106  2.43000000e+03 
646.071  2.36300000e+03 
646.035  2.36500000e+03 
645.999  2.46600000e+03 
645.963  2.41300000e+03 
645.927  2.36600000e+03 
645.891  2.46900000e+03 
645.855  2.52200000e+03 
645.819  2.48100000e+03 
645.783  2.47800000e+03 
645.747  2.49200000e+03 
645.711  2.51300000e+03 
645.676  2.56200000e+03 
645.640  2.53900000e+03 
645.604  2.66900000e+03 
645.568  2.61500000e+03 
645.532  2.72300000e+03 
645.496  2.62400000e+03 
645.460  2.61200000e+03 
645.424  2.60200000e+03 
645.388  2.62600000e+03 
645.352  2.72800000e+03 
645.316  2.72600000e+03 
645.280  2.77600000e+03 
645.245  2.76600000e+03 
645.209  2.82400000e+03 
645.173  2.74200000e+03 
645.137  2.85900000e+03 
645.101  2.90800000e+03 
645.065  2.87900000e+03 
645.029  2.83100000e+03 
644.993  2.89700000e+03 
644.957  2.84300000e+03 
644.921  2.76800000e+03 
644.885  2.83500000e+03 
644.850  2.88100000e+03 
644.814  2.94200000e+03 
644.778  2.96500000e+03 
644.742  2.95600000e+03 
644.706  3.02500000e+03 
644.670  3.06000000e+03 
644.634  3.04600000e+03 
644.598  2.95100000e+03 
644.562  3.10500000e+03 
644.526  3.04100000e+03 
644.490  3.05600000e+03 
644.454  3.16700000e+03 
644.419  3.17100000e+03 
644.383  3.13800000e+03 
644.347  3.16900000e+03 
644.311  3.17900000e+03 
644.275  3.26600000e+03 
644.239  3.18000000e+03 
644.203  3.25100000e+03 
644.167  3.26900000e+03 
644.131  3.22800000e+03 
644.095  3.25700000e+03 
644.059  3.26900000e+03 
644.024  3.33500000e+03 
643.988  3.30700000e+03 
643.952  3.23100000e+03 
643.916  3.37900000e+03 
643.880  3.32500000e+03 
643.844  3.25400000e+03 
643.808  3.32200000e+03 
643.772  3.34300000e+03 
643.736  3.21700000e+03 
643.700  3.32000000e+03 
643.664  3.33400000e+03 
643.628  3.29800000e+03 
643.593  3.27800000e+03 
643.557  3.31300000e+03 
643.521  3.23500000e+03 
643.485  3.19900000e+03 
643.449  3.36700000e+03 
643.413  3.27700000e+03 
643.377  3.39800000e+03 
643.341  3.31200000e+03 
643.305  3.28000000e+03 
643.269  3.31700000e+03 
643.233  3.29800000e+03 
643.198  3.24300000e+03 
643.162  3.28300000e+03 
643.126  3.26200000e+03 
643.090  3.26000000e+03 
643.054  3.25000000e+03 
643.018  3.21900000e+03 
642.982  3.23200000e+03 
642.946  3.14700000e+03 
642.910  3.17500000e+03 
642.874  3.13300000e+03 
642.838  3.11800000e+03 
642.802  3.17500000e+03 
642.767  3.10500000e+03 
642.731  3.08000000e+03 
642.695  3.07700000e+03 
642.659  3.02000000e+03 
642.623  2.97500000e+03 
642.587  3.05100000e+03 
642.551  3.05900000e+03 
642.515  2.91300000e+03 
642.479  2.82400000e+03 
642.443  2.87400000e+03 
642.407  2.92700000e+03 
642.372  2.77000000e+03 
642.336  2.86100000e+03 
642.300  2.75500000e+03 
642.264  2.70100000e+03 
642.228  2.67600000e+03 
642.192  2.66400000e+03 
642.156  2.64000000e+03 
642.120  2.61000000e+03 
642.084  2.56000000e+03 
642.048  2.60100000e+03 
642.012  2.53300000e+03 
641.976  2.49100000e+03 
641.941  2.36700000e+03 
641.905  2.29800000e+03 
641.869  2.34000000e+03 
641.833  2.33700000e+03 
641.797  2.28000000e+03 
641.761  2.26300000e+03 
641.725  2.17700000e+03 
641.689  2.16300000e+03 
641.653  2.19700000e+03 
641.617  2.14300000e+03 
641.581  2.16400000e+03 
641.546  2.09200000e+03 
641.510  1.99200000e+03 
641.474  2.09200000e+03 
641.438  2.06800000e+03 
641.402  2.05700000e+03 
641.366  1.99400000e+03 
641.330  1.96300000e+03 
641.294  1.98000000e+03 
641.258  1.84500000e+03 
641.222  1.85000000e+03 
641.186  1.80200000e+03 
641.150  1.76900000e+03 
641.115  1.75500000e+03 
641.079  1.68100000e+03 
641.043  1.77200000e+03 
641.007  1.70300000e+03 
640.971  1.63500000e+03 
640.935  1.74400000e+03 
640.899  1.61200000e+03 
640.863  1.66900000e+03 
640.827  1.60000000e+03 
640.791  1.59200000e+03 
640.755  1.60300000e+03 
640.720  1.56200000e+03 
640.684  1.53100000e+03 
640.648  1.59400000e+03 
640.612  1.56700000e+03 
640.576  1.47400000e+03 
640.540  1.46200000e+03 
640.504  1.53700000e+03 
640.468  1.44600000e+03 
640.432  1.44400000e+03 
640.396  1.47000000e+03 
640.360  1.50800000e+03 
640.324  1.44600000e+03 
640.289  1.45500000e+03 
640.253  1.51100000e+03 
640.217  1.46500000e+03 
640.181  1.49500000e+03 
640.145  1.45100000e+03 
640.109  1.47000000e+03 
640.073  1.41100000e+03 
640.037  1.49100000e+03 
640.001  1.44500000e+03 
639.965  1.45400000e+03 
639.929  1.40700000e+03 
639.894  1.43400000e+03 
639.858  1.45800000e+03 
639.822  1.41400000e+03 
639.786  1.32700000e+03 
639.750  1.34400000e+03 
639.714  1.47300000e+03 
639.678  1.45800000e+03 
639.642  1.35800000e+03 
639.606  1.36300000e+03 
639.570  1.40000000e+03 
639.534  1.42900000e+03 
639.498  1.48400000e+03 
639.463  1.44000000e+03 
639.427  1.38700000e+03 
639.391  1.41900000e+03 
639.355  1.35300000e+03 
639.319  1.42200000e+03 
639.283  1.40300000e+03 
639.247  1.39400000e+03 
639.211  1.37700000e+03 
639.175  1.42600000e+03 
639.139  1.39400000e+03 
639.103  1.47100000e+03 
639.068  1.36300000e+03 
639.032  1.41000000e+03 
638.996  1.40900000e+03 
638.960  1.36600000e+03 
638.924  1.40600000e+03 
638.888  1.42300000e+03 
638.852  1.37200000e+03 
638.816  1.47000000e+03 
638.780  1.38600000e+03 
638.744  1.33000000e+03 
638.708  1.42000000e+03 
638.672  1.39600000e+03 
638.637  1.44600000e+03 
638.601  1.39700000e+03 
638.565  1.42100000e+03 
638.529  1.36600000e+03 
638.493  1.34300000e+03 
638.457  1.38300000e+03 
638.421  1.41300000e+03 
638.385  1.45400000e+03 
638.349  1.37000000e+03 
638.313  1.44900000e+03 
638.277  1.40600000e+03 
638.242  1.41200000e+03 
638.206  1.37000000e+03 
638.170  1.39400000e+03 
638.134  1.40100000e+03 
638.098  1.39400000e+03 
638.062  1.43700000e+03 
638.026  1.34600000e+03 
637.990  1.45700000e+03 
637.954  1.33700000e+03 
637.918  1.44000000e+03 
637.882  1.33700000e+03 
637.847  1.39900000e+03 
637.811  1.44800000e+03 
637.775  1.41600000e+03 
637.739  1.46500000e+03 
637.703  1.43600000e+03 
637.667  1.35100000e+03 
637.631  1.33000000e+03 
637.595  1.41300000e+03 
637.559  1.34500000e+03 
637.523  1.41100000e+03 
637.487  1.42900000e+03 
637.451  1.49800000e+03 
637.416  1.35800000e+03 
637.380  1.42400000e+03 
637.344  1.44400000e+03 
637.308  1.45100000e+03 
637.272  1.38500000e+03 
637.236  1.33900000e+03 
637.200  1.44100000e+03 
637.164  1.35700000e+03 
637.128  1.42200000e+03 
637.092  1.37500000e+03 
637.056  1.47100000e+03 
637.021  1.43100000e+03 
[ Region 7 Curve ]
BEcenter= 643.000 
BEwidth= -11.959 
Excitation= 1486.600
Time_p_channel= 256.000 
Size= 334
648.979  2.19300000e+03 
648.944  2.21400000e+03 
648.908  2.13100000e+03 
648.872  2.14300000e+03 
648.836  2.14500000e+03 
648.800  2.15900000e+03 
648.764  2.12000000e+03 
648.728  2.08000000e+03 
648.692  2.19000000e+03 
648.656  2.21500000e+03 
648.620  2.14000000e+03 
648.584  2.25000000e+03 
648.549  2.09400000e+03 
648.513  2.23000000e+03 
648.477  2.15200000e+03 
648.441  2.24900000e+03 
648.405  2.15300000e+03 
648.369  2.11200000e+03 
648.333  2.20100000e+03 
648.297  2.24100000e+03 
648.261  2.16400000e+03 
648.225  2.22900000e+03 
648.189  2.22600000e+03 
648.153  2.14200000e+03 
648.118  2.18300000e+03 
648.082  2.25100000e+03 
648.046  2.14900000e+03 
648.010  2.18200000e+03 
647.974  2.20700000e+03 
647.938  2.19600000e+03 
647.902  2.19100000e+03 
647.866  2.12700000e+03 
647.830  2.19100000e+03 
647.794  2.16800000e+03 
647.758  2.23900000e+03 
647.723  2.22200000e+03 
647.687  2.26800000e+03 
647.651  2.19200000e+03 
647.615  2.19600000e+03 
647.579  2.28000000e+03 
647.543  2.34100000e+03 
647.507  2.19000000e+03 
647.471  2.25200000e+03 
647.435  2.32000000e+03 
647.399  2.19600000e+03 
647.363  2.25900000e+03 
647.328  2.14500000e+03 
647.292  2.33700000e+03 
647.256  2.23900000e+03 
647.220  2.30100000e+03 
647.184  2.30300000e+03 
647.148  2.26500000e+03 
647.112  2.24300000e+03 
647.076  2.20400000e+03 
647.040  2.26700000e+03 
647.004  2.27700000e+03 
646.968  2.30700000e+03 
646.932  2.31400000e+03 
646.897  2.24600000e+03 
646.861  2.27700000e+03 
646.825  2.35200000e+03 
646.789  2.30100000e+03 
646.753  2.43300000e+03 
646.717  2.42900000e+03 
646.681  2.35100000e+03 
646.645  2.41000000e+03 
646.609  2.43300000e+03 
646.573  2.26800000e+03 
646.537  2.27600000e+03 
646.502  2.35500000e+03 
646.466  2.43000000e+03 
646.430  2.39600000e+03 
646.394  2.43800000e+03 
646.358  2.48200000e+03 
646.322  2.45000000e+03 
646.286  2.48700000e+03 
646.250  2.36300000e+03 
646.214  2.51800000e+03 
646.178  2.51600000e+03 
646.142  2.55800000e+03 
646.106  2.49600000e+03 
646.071  2.62000000e+03 
646.035  2.49800000e+03 
645.999  2.50100000e+03 
645.963  2.55200000e+03 
645.927  2.58200000e+03 
645.891  2.64700000e+03 
645.855  2.62200000e+03 
645.819  2.64400000e+03 
645.783  2.71500000e+03 
645.747  2.61100000e+03 
645.711  2.71500000e+03 
645.676  2.70900000e+03 
645.640  2.82000000e+03 
645.604  2.74600000e+03 
645.568  2.75400000e+03 
645.532  2.67600000e+03 
645.496  2.88500000e+03 
645.460  2.81200000e+03 
645.424  2.81900000e+03 
645.388  2.79300000e+03 
645.352  2.76200000e+03 
645.316  2.89300000e+03 
645.280  2.84600000e+03 
645.245  3.05200000e+03 
645.209  3.02600000e+03 
645.173  2.98300000e+03 
645.137  2.93300000e+03 
645.101  2.98200000e+03 
645.065  3.00200000e+03 
645.029  3.04400000e+03 
644.993  3.06200000e+03 
644.957  3.05300000e+03 
644.921  3.00300000e+03 
644.885  3.10500000e+03 
644.850  3.08800000e+03 
644.814  3.16000000e+03 
644.778  3.16100000e+03 
644.742  3.21300000e+03 
644.706  3.12400000e+03 
644.670  3.17600000e+03 
644.634  3.20800000e+03 
644.598  3.20400000e+03 
644.562  3.24500000e+03 
644.526  3.18100000e+03 
644.490  3.21500000e+03 
644.454  3.34400000e+03 
644.419  3.25100000e+03 
644.383  3.31000000e+03 
644.347  3.43400000e+03 
644.311  3.39700000e+03 
644.275  3.23300000e+03 
644.239  3.54800000e+03 
644.203  3.43500000e+03 
644.167  3.37400000e+03 
644.131  3.36800000e+03 
644.095  3.30600000e+03 
644.059  3.46200000e+03 
644.024  3.44500000e+03 
643.988  3.45000000e+03 
643.952  3.41900000e+03 
643.916  3.47100000e+03 
643.880  3.46200000e+03 
643.844  3.50100000e+03 
643.808  3.49900000e+03 
643.772  3.44300000e+03 
643.736  3.42300000e+03 
643.700  3.43800000e+03 
643.664  3.49900000e+03 
643.628  3.49800000e+03 
643.593  3.53000000e+03 
643.557  3.45100000e+03 
643.521  3.44100000e+03 
643.485  3.54600000e+03 
643.449  3.46500000e+03 
643.413  3.42700000e+03 
643.377  3.35200000e+03 
643.341  3.46800000e+03 
643.305  3.37500000e+03 
643.269  3.58000000e+03 
643.233  3.45300000e+03 
643.198  3.53300000e+03 
643.162  3.29800000e+03 
643.126  3.42600000e+03 
643.090  3.40800000e+03 
643.054  3.32200000e+03 
643.018  3.32000000e+03 
642.982  3.25400000e+03 
642.946  3.38200000e+03 
642.910  3.22300000e+03 
642.874  3.28900000e+03 
642.838  3.26800000e+03 
642.802  3.14900000e+03 
642.767  3.21200000e+03 
642.731  3.24100000e+03 
642.695  3.05000000e+03 
642.659  3.06800000e+03 
642.623  3.05300000e+03 
642.587  3.02100000e+03 
642.551  2.99300000e+03 
642.515  3.11400000e+03 
642.479  2.98000000e+03 
642.443  3.00400000e+03 
642.407  2.81300000e+03 
642.372  2.80900000e+03 
642.336  2.72700000e+03 
642.300  2.78300000e+03 
642.264  2.79200000e+03 
642.228  2.75500000e+03 
642.192  2.79500000e+03 
642.156  2.69500000e+03 
642.120  2.65900000e+03 
642.084  2.62200000e+03 
642.048  2.59200000e+03 
642.012  2.52000000e+03 
641.976  2.50800000e+03 
641.941  2.41400000e+03 
641.905  2.42600000e+03 
641.869  2.39800000e+03 
641.833  2.39000000e+03 
641.797  2.34600000e+03 
641.761  2.21200000e+03 
641.725  2.32900000e+03 
641.689  2.20800000e+03 
641.653  2.19300000e+03 
641.617  2.07800000e+03 
641.581  2.06900000e+03 
641.546  2.16300000e+03 
641.510  2.06000000e+03 
641.474  1.92700000e+03 
641.438  2.03100000e+03 
641.402  1.99600000e+03 
641.366  1.97200000e+03 
641.330  1.91800000e+03 
641.294  1.92300000e+03 
641.258  1.87300000e+03 
641.222  1.88400000e+03 
641.186  1.81200000e+03 
641.150  1.89000000e+03 
641.115  1.81500000e+03 
641.079  1.72800000e+03 
641.043  1.73400000e+03 
641.007  1.74100000e+03 
640.971  1.68600000e+03 
640.935  1.64700000e+03 
640.899  1.58300000e+03 
640.863  1.62000000e+03 
640.827  1.69000000e+03 
640.791  1.60300000e+03 
640.755  1.61500000e+03 
640.720  1.58500000e+03 
640.684  1.58000000e+03 
640.648  1.59800000e+03 
640.612  1.50900000e+03 
640.576  1.53800000e+03 
640.540  1.55600000e+03 
640.504  1.49400000e+03 
640.468  1.61400000e+03 
640.432  1.54400000e+03 
640.396  1.46700000e+03 
640.360  1.50400000e+03 
640.324  1.52500000e+03 
640.289  1.52100000e+03 
640.253  1.54800000e+03 
640.217  1.49300000e+03 
640.181  1.50900000e+03 
640.145  1.53800000e+03 
640.109  1.43500000e+03 
640.073  1.49300000e+03 
640.037  1.50400000e+03 
640.001  1.50600000e+03 
639.965  1.47900000e+03 
639.929  1.50900000e+03 
639.894  1.42100000e+03 
639.858  1.44600000e+03 
639.822  1.45500000e+03 
639.786  1.44800000e+03 
639.750  1.48300000e+03 
639.714  1.48700000e+03 
639.678  1.54300000e+03 
639.642  1.52400000e+03 
639.606  1.46000000e+03 
639.570  1.48900000e+03 
639.534  1.48900000e+03 
639.498  1.38200000e+03 
639.463  1.44400000e+03 
639.427  1.43700000e+03 
639.391  1.42300000e+03 
639.355  1.45000000e+03 
639.319  1.51800000e+03 
639.283  1.42000000e+03 
639.247  1.47800000e+03 
639.211  1.43500000e+03 
639.175  1.37300000e+03 
639.139  1.43100000e+03 
639.103  1.42400000e+03 
639.068  1.52800000e+03 
639.032  1.42500000e+03 
638.996  1.46800000e+03 
638.960  1.42300000e+03 
638.924  1.46500000e+03 
638.888  1.47200000e+03 
638.852  1.49400000e+03 
638.816  1.49700000e+03 
638.780  1.48100000e+03 
638.744  1.48300000e+03 
638.708  1.51800000e+03 
638.672  1.44000000e+03 
638.637  1.52300000e+03 
638.601  1.40500000e+03 
638.565  1.40900000e+03 
638.529  1.48500000e+03 
638.493  1.44900000e+03 
638.457  1.39700000e+03 
638.421  1.46300000e+03 
638.385  1.46800000e+03 
638.349  1.45100000e+03 
638.313  1.44400000e+03 
638.277  1.49500000e+03 
638.242  1.57600000e+03 
638.206  1.45900000e+03 
638.170  1.42800000e+03 
638.134  1.45800000e+03 
638.098  1.37300000e+03 
638.062  1.39100000e+03 
638.026  1.47700000e+03 
637.990  1.41400000e+03 
637.954  1.38600000e+03 
637.918  1.41400000e+03 
637.882  1.41000000e+03 
637.847  1.44600000e+03 
637.811  1.42000000e+03 
637.775  1.48100000e+03 
637.739  1.52600000e+03 
637.703  1.45800000e+03 
637.667  1.45800000e+03 
637.631  1.48000000e+03 
637.595  1.47500000e+03 
637.559  1.41500000e+03 
637.523  1.39500000e+03 
637.487  1.51500000e+03 
637.451  1.47900000e+03 
637.416  1.42900000e+03 
637.380  1.41800000e+03 
637.344  1.36800000e+03 
637.308  1.40900000e+03 
637.272  1.44400000e+03 
637.236  1.44700000e+03 
637.200  1.49600000e+03 
637.164  1.43700000e+03 
637.128  1.40700000e+03 
637.092  1.42900000e+03 
637.056  1.48700000e+03 
637.021  1.47100000e+03 
[ Region 8 Curve ]
BEcenter= 643.000 
BEwidth= -11.959 
Excitation= 1486.600
Time_p_channel= 256.000 
Size= 334
648.979  2.24200000e+03 
648.944  2.21900000e+03 
648.908  2.14900000e+03 
648.872  2.18100000e+03 
648.836  2.17800000e+03 
648.800  2.19300000e+03 
648.764  2.20700000e+03 
648.728  2.23700000e+03 
648.692  2.26500000e+03 
648.656  2.22600000e+03 
648.620  2.17100000e+03 
648.584  2.18900000e+03 
648.549  2.29800000e+03 
648.513  2.21600000e+03 
648.477  2.14100000e+03 
648.441  2.21900000e+03 
648.405  2.23300000e+03 
648.369  2.22800000e+03 
648.333  2.28500000e+03 
648.297  2.26200000e+03 
648.261  2.19500000e+03 
648.225  2.28700000e+03 
648.189  2.26100000e+03 
648.153  2.18600000e+03 
648.118  2.29600000e+03 
648.082  2.26700000e+03 
648.046  2.20600000e+03 
648.010  2.18400000e+03 
647.974  2.23200000e+03 
647.938  2.24800000e+03 
647.902  2.23700000e+03 
647.866  2.22800000e+03 
647.830  2.28200000e+03 
647.794  2.24500000e+03 
647.758  2.19800000e+03 
647.723  2.24600000e+03 
647.687  2.39800000e+03 
647.651  2.26400000e+03 
647.615  2.31900000e+03 
647.579  2.25400000e+03 
647.543  2.31300000e+03 
647.507  2.24000000e+03 
647.471  2.32000000e+03 
647.435  2.31400000e+03 
647.399  2.34200000e+03 
647.363  2.31500000e+03 
647.328  2.34200000e+03 
647.292  2.33500000e+03 
647.256  2.37600000e+03 
647.220  2.35800000e+03 
647.184  2.40100000e+03 
647.148  2.34500000e+03 
647.112  2.35300000e+03 
647.076  2.37200000e+03 
647.040  2.34600000e+03 
647.004  2.34500000e+03 
646.968  2.29000000e+03 
646.932  2.47100000e+03 
646.897  2.51600000e+03 
646.861  2.41800000e+03 
646.825  2.45900000e+03 
646.789  2.43900000e+03 
646.753  2.41400000e+03 
646.717  2.50800000e+03 
646.681  2.51400000e+03 
646.645  2.43500000e+03 
646.609  2.56500000e+03 
646.573  2.49800000e+03 
646.537  2.49700000e+03 
646.502  2.44100000e+03 
646.466  2.51100000e+03 
646.430  2.50900000e+03 
646.394  2.62600000e+03 
646.358  2.53800000e+03 
646.322  2.58100000e+03 
646.286  2.57800000e+03 
646.250  2.58700000e+03 
646.214  2.57000000e+03 
646.178  2.53800000e+03 
646.142  2.70200000e+03 
646.106  2.60000000e+03 
646.071  2.70200000e+03 
646.035  2.64800000e+03 
645.999  2.68400000e+03 
645.963  2.57300000e+03 
645.927  2.70800000e+03 
645.891  2.83100000e+03 
645.855  2.71400000e+03 
645.819  2.75000000e+03 
645.783  2.68300000e+03 
645.747  2.73900000e+03 
645.711  2.82200000e+03 
645.676  2.81300000e+03 
645.640  3.01600000e+03 
645.604  2.80100000e+03 
645.568  2.79900000e+03 
645.532  2.88300000e+03 
645.496  2.90300000e+03 
645.460  2.94000000e+03 
645.424  2.97800000e+03 
645.388  2.89500000e+03 
645.352  2.95400000e+03 
645.316  3.03700000e+03 
645.280  3.04500000e+03 
645.245  2.95900000e+03 
645.209  3.00400000e+03 
645.173  3.13500000e+03 
645.137  3.05300000e+03 
645.101  3.05900000e+03 
645.065  3.17900000e+03 
645.029  3.17600000e+03 
644.993  3.10600000e+03 
644.957  3.13900000e+03 
644.921  3.18100000e+03 
644.885  3.20700000e+03 
644.850  3.16900000e+03 
644.814  3.18200000e+03 
644.778  3.25500000e+03 
644.742  3.24500000e+03 
644.706  3.18500000e+03 
644.670  3.35500000e+03 
644.634  3.19200000e+03 
644.598  3.27100000e+03 
644.562  3.37000000e+03 
644.526  3.33600000e+03 
644.490  3.30500000e+03 
644.454  3.38500000e+03 
644.419  3.37900000e+03 
644.383  3.42200000e+03 
644.347  3.39200000e+03 
644.311  3.42200000e+03 
644.275  3.34400000e+03 
644.239  3.47000000e+03 
644.203  3.55100000e+03 
644.167  3.36300000e+03 
644.131  3.51400000e+03 
644.095  3.48000000e+03 
644.059  3.47500000e+03 
644.024  3.51400000e+03 
643.988  3.55600000e+03 
643.952  3.43800000e+03 
643.916  3.40200000e+03 
643.880  3.53000000e+03 
643.844  3.54400000e+03 
643.808  3.53600000e+03 
643.772  3.48500000e+03 
643.736  3.47900000e+03 
643.700  3.46300000e+03 
643.664  3.51400000e+03 
643.628  3.52200000e+03 
643.593  3.44900000e+03 
643.557  3.51000000e+03 
643.521  3.50200000e+03 
643.485  3.52600000e+03 
643.449  3.47800000e+03 
643.413  3.45100000e+03 
643.377  3.34600000e+03 
643.341  3.41300000e+03 
643.305  3.42100000e+03 
643.269  3.27000000e+03 
643.233  3.33300000e+03 
643.198  3.44500000e+03 
643.162  3.35300000e+03 
643.126  3.29900000e+03 
643.090  3.30600000e+03 
643.054  3.27300000e+03 
643.018  3.21700000e+03 
642.982  3.23400000e+03 
642.946  3.24200000e+03 
642.910  3.28600000e+03 
642.874  3.22400000e+03 
642.838  3.17100000e+03 
642.802  3.19000000e+03 
642.767  3.23600000e+03 
642.731  3.10600000e+03 
642.695  3.03900000e+03 
642.659  3.24000000e+03 
642.623  3.03700000e+03 
642.587  2.91800000e+03 
642.551  3.02200000e+03 
642.515  2.93700000e+03 
642.479  2.94700000e+03 
642.443  2.82500000e+03 
642.407  2.94400000e+03 
642.372  2.78600000e+03 
642.336  2.74900000e+03 
642.300  2.76300000e+03 
642.264  2.67000000e+03 
642.228  2.66600000e+03 
642.192  2.63600000e+03 
642.156  2.58600000e+03 
642.120  2.61800000e+03 
642.084  2.47300000e+03 
642.048  2.51800000e+03 
642.012  2.50300000e+03 
641.976  2.49800000e+03 
641.941  2.51000000e+03 
641.905  2.31300000e+03 
641.869  2.41400000e+03 
641.833  2.34800000e+03 
641.797  2.20600000e+03 
641.761  2.21800000e+03 
641.725  2.20300000e+03 
641.689  2.15800000e+03 
641.653  2.17300000e+03 
641.617  2.10000000e+03 
641.581  2.09000000e+03 
641.546  2.07500000e+03 
641.510  2.08800000e+03 
641.474  2.03700000e+03 
641.438  1.97400000e+03 
641.402  1.96000000e+03 
641.366  1.95700000e+03 
641.330  1.86500000e+03 
641.294  1.85300000e+03 
641.258  1.78800000e+03 
641.222  1.81800000e+03 
641.186  1.86600000e+03 
641.150  1.85300000e+03 
641.115  1.78400000e+03 
641.079  1.79000000e+03 
641.043  1.72500000e+03 
641.007  1.77300000e+03 
640.971  1.74600000e+03 
640.935  1.69400000e+03 
640.899  1.67800000e+03 
640.863  1.61000000e+03 
640.827  1.65800000e+03 
640.791  1.68500000e+03 
640.755  1.62900000e+03 
640.720  1.63600000e+03 
640.684  1.59100000e+03 
640.648  1.62600000e+03 
640.612  1.57000000e+03 
640.576  1.59700000e+03 
640.540  1.64200000e+03 
640.504  1.55100000e+03 
640.468  1.63000000e+03 
640.432  1.55200000e+03 
640.396  1.50100000e+03 
640.360  1.50200000e+03 
640.324  1.52300000e+03 
640.289  1.59800000e+03 
640.253  1.54700000e+03 
640.217  1.54900000e+03 
640.181  1.56600000e+03 
640.145  1.52800000e+03 
640.109  1.54500000e+03 
640.073  1.58800000e+03 
640.037  1.48200000e+03 
640.001  1.52500000e+03 
639.965  1.46000000e+03 
639.929  1.49500000e+03 
639.894  1.56800000e+03 
639.858  1.50000000e+03 
639.822  1.53100000e+03 
639.786  1.47500000e+03 
639.750  1.48900000e+03 
639.714  1.45500000e+03 
639.678  1.50400000e+03 
639.642  1.50900000e+03 
639.606  1.45200000e+03 
639.570  1.46700000e+03 
639.534  1.42400000e+03 
639.498  1.49200000e+03 
639.463  1.48700000e+03 
639.427  1.44600000e+03 
639.391  1.51700000e+03 
639.355  1.50000000e+03 
639.319  1.44000000e+03 
639.283  1.51300000e+03 
639.247  1.44700000e+03 
639.211  1.43600000e+03 
639.175  1.47800000e+03 
639.139  1.47500000e+03 
639.103  1.48800000e+03 
639.068  1.50800000e+03 
639.032  1.52100000e+03 
638.996  1.55100000e+03 
638.960  1.56600000e+03 
638.924  1.51700000e+03 
638.888  1.45000000e+03 
638.852  1.49800000e+03 
638.816  1.46000000e+03 
638.780  1.49000000e+03 
638.744  1.47900000e+03 
638.708  1.52100000e+03 
638.672  1.44600000e+03 
638.637  1.45000000e+03 
638.601  1.52800000e+03 
638.565  1.48800000e+03 
638.529  1.50800000e+03 
638.493  1.41900000e+03 
638.457  1.47700000e+03 
638.421  1.47300000e+03 
638.385  1.44300000e+03 
638.349  1.44900000e+03 
638.313  1.49700000e+03 
638.277  1.45700000e+03 
638.242  1.47500000e+03 
638.206  1.46400000e+03 
638.170  1.46500000e+03 
638.134  1.46200000e+03 
638.098  1.53800000e+03 
638.062  1.49000000e+03 
638.026  1.48100000e+03 
637.990  1.55800000e+03 
637.954  1.46100000e+03 
637.918  1.49200000e+03 
637.882  1.41700000e+03 
637.847  1.47100000e+03 
637.811  1.44800000e+03 
637.775  1.50700000e+03 
637.739  1.53700000e+03 
637.703  1.46700000e+03 
637.667  1.43300000e+03 
637.631  1.48300000e+03 
637.595  1.46300000e+03 
637.559  1.39200000e+03 
637.523  1.42700000e+03 
637.487  1.50000000e+03 
637.451  1.47400000e+03 
637.416  1.43700000e+03 
637.380  1.50000000e+03 
637.344  1.49900000e+03 
637.308  1.47700000e+03 
637.272  1.47100000e+03 
637.236  1.51700000e+03 
637.200  1.45900000e+03 
637.164  1.41500000e+03 
637.128  1.49100000e+03 
637.092  1.49400000e+03 
637.056  1.44500000e+03 
637.021  1.52800000e+03 
[ Region 9 Curve ]
BEcenter= 643.000 
BEwidth= -11.959 
Excitation= 1486.600
Time_p_channel= 256.000 
Size= 334
648.979  2.30800000e+03 
648.944  2.28600000e+03 
648.908  2.26600000e+03 
648.872  2.30700000e+03 
648.836  2.18900000e+03 
648.800  2.28900000e+03 
648.764  2.25500000e+03 
648.728  2.21600000e+03 
648.692  2.30900000e+03 
648.656  2.21100000e+03 
648.620  2.32400000e+03 
648.584  2.25300000e+03 
648.549  2.32100000e+03 
648.513  2.29600000e+03 
648.477  2.24200000e+03 
648.441  2.33500000e+03 
648.405  2.27900000e+03 
648.369  2.31200000e+03 
648.333  2.24600000e+03 
648.297  2.21000000e+03 
648.261  2.19600000e+03 
648.225  2.20800000e+03 
648.189  2.27900000e+03 
648.153  2.30800000e+03 
648.118  2.25500000e+03 
648.082  2.27300000e+03 
648.046  2.29200000e+03 
648.010  2.20600000e+03 
647.974  2.31900000e+03 
647.938  2.31700000e+03 
647.902  2.28100000e+03 
647.866  2.36200000e+03 
647.830  2.27000000e+03 
647.794  2.22400000e+03 
647.758  2.25700000e+03 
647.723  2.33200000e+03 
647.687  2.28600000e+03 
647.651  2.41300000e+03 
647.615  2.25500000e+03 
647.579  2.33500000e+03 
647.543  2.27400000e+03 
647.507  2.32300000e+03 
647.471  2.42900000e+03 
647.435  2.29200000e+03 
647.399  2.40000000e+03 
647.363  2.39600000e+03 
647.328  2.28700000e+03 
647.292  2.32100000e+03 
647.256  2.31500000e+03 
647.220  2.35800000e+03 
647.184  2.39700000e+03 
647.148  2.37300000e+03 
647.112  2.45100000e+03 
647.076  2.36700000e+03 
647.040  2.39900000e+03 
647.004  2.30000000e+03 
646.968  2.41800000e+03 
646.932  2.52200000e+03 
646.897  2.44900000e+03 
646.861  2.49500000e+03 
646.825  2.41400000e+03 
646.789  2.46700000e+03 
646.753  2.59000000e+03 
646.717  2.48600000e+03 
646.681  2.39800000e+03 
646.645  2.54700000e+03 
646.609  2.44800000e+03 
646.573  2.46600000e+03 
646.537  2.52900000e+03 
646.502  2.57000000e+03 
646.466  2.41900000e+03 
646.430  2.56600000e+03 
646.394  2.53400000e+03 
646.358  2.55500000e+03 
646.322  2.55100000e+03 
646.286  2.62700000e+03 
646.250  2.54600000e+03 
646.214  2.70200000e+03 
646.178  2.58300000e+03 
646.142  2.55500000e+03 
646.106  2.69000000e+03 
646.071  2.52900000e+03 
646.035  2.59500000e+03 
645.999  2.72700000e+03 
645.963  2.67900000e+03 
645.927  2.64400000e+03 
645.891  2.77500000e+03 
645.855  2.73200000e+03 
645.819  2.88300000e+03 
645.783  2.74800000e+03 
645.747  2.75200000e+03 
645.711  2.78400000e+03 
645.676  2.87700000e+03 
645.640  2.75000000e+03 
645.604  2.89900000e+03 
645.568  2.96200000e+03 
645.532  2.82500000e+03 
645.496  2.84500000e+03 
645.460  2.84400000e+03 
645.424  2.90400000e+03 
645.388  2.92100000e+03 
645.352  2.99100000e+03 
645.316  2.90000000e+03 
645.280  3.06900000e+03 
645.245  3.02100000e+03 
645.209  3.10500000e+03 
645.173  3.02900000e+03 
645.137  3.07600000e+03 
645.101  3.14500000e+03 
645.065  3.10000000e+03 
645.029  3.24700000e+03 
644.993  3.11400000e+03 
644.957  3.24800000e+03 
644.921  3.20800000e+03 
644.885  3.26700000e+03 
644.850  3.10000000e+03 
644.814  3.20100000e+03 
644.778  3.43900000e+03 
644.742  3.21000000e+03 
644.706  3.40000000e+03 
644.670  3.32100000e+03 
644.634  3.29000000e+03 
644.598  3.29400000e+03 
644.562  3.44400000e+03 
644.526  3.36600000e+03 
644.490  3.45700000e+03 
644.454  3.45500000e+03 
644.419  3.42000000e+03 
644.383  3.48700000e+03 
644.347  3.42100000e+03 
644.311  3.45000000e+03 
644.275  3.50200000e+03 
644.239  3.46900000e+03 
644.203  3.42800000e+03 
644.167  3.54100000e+03 
644.131  3.52800000e+03 
644.095  3.56100000e+03 
644.059  3.57400000e+03 
644.024  3.61600000e+03 
643.988  3.44800000e+03 
643.952  3.48600000e+03 
643.916  3.63200000e+03 
643.880  3.52900000e+03 
643.844  3.60600000e+03 
643.808  3.40800000e+03 
643.772  3.51000000e+03 
643.736  3.60900000e+03 
643.700  3.53200000e+03 
643.664  3.53000000e+03 
643.628  3.51500000e+03 
643.593  3.42900000e+03 
643.557  3.47500000e+03 
643.521  3.47600000e+03 
643.485  3.54900000e+03 
643.449  3.50700000e+03 
643.413  3.50900000e+03 
643.377  3.48800000e+03 
643.341  3.50100000e+03 
643.305  3.48400000e+03 
643.269  3.42000000e+03 
643.233  3.43700000e+03 
643.198  3.44400000e+03 
643.162  3.42700000e+03 
643.126  3.48700000e+03 
643.090  3.41800000e+03 
643.054  3.42700000e+03 
643.018  3.26200000e+03 
642.982  3.28300000e+03 
642.946  3.36400000e+03 
642.910  3.23400000e+03 
642.874  3.22500000e+03 
642.838  3.24400000e+03 
642.802  3.15800000e+03 
642.767  3.14400000e+03 
642.731  3.14900000e+03 
642.695  3.15400000e+03 
642.659  3.10500000e+03 
642.623  3.00600000e+03 
642.587  2.97000000e+03 
642.551  2.96900000e+03 
642.515  2.97200000e+03 
642.479  2.93800000e+03 
642.443  2.98900000e+03 
642.407  2.84700000e+03 
642.372  2.78200000e+03 
642.336  2.87400000e+03 
642.300  2.72700000e+03 
642.264  2.71000000e+03 
642.228  2.63800000e+03 
642.192  2.63600000e+03 
642.156  2.62400000e+03 
642.120  2.55900000e+03 
642.084  2.53300000e+03 
642.048  2.56100000e+03 
642.012  2.51700000e+03 
641.976  2.40500000e+03 
641.941  2.41900000e+03 
641.905  2.31200000e+03 
641.869  2.37000000e+03 
641.833  2.28300000e+03 
641.797  2.37700000e+03 
641.761  2.16800000e+03 
641.725  2.20400000e+03 
641.689  2.28200000e+03 
641.653  2.19200000e+03 
641.617  2.15400000e+03 
641.581  2.04000000e+03 
641.546  2.10600000e+03 
641.510  2.03100000e+03 
641.474  2.04900000e+03 
641.438  1.98300000e+03 
641.402  1.96000000e+03 
641.366  1.95000000e+03 
641.330  1.88000000e+03 
641.294  1.90500000e+03 
641.258  1.88900000e+03 
641.222  1.86800000e+03 
641.186  1.81400000e+03 
641.150  1.81700000e+03 
641.115  1.79200000e+03 
641.079  1.71500000e+03 
641.043  1.75400000e+03 
641.007  1.75600000e+03 
640.971  1.71900000e+03 
640.935  1.70900000e+03 
640.899  1.70100000e+03 
640.863  1.66800000e+03 
640.827  1.63100000e+03 
640.791  1.64300000e+03 
640.755  1.65300000e+03 
640.720  1.55900000e+03 
640.684  1.62400000e+03 
640.648  1.59600000e+03 
640.612  1.60900000e+03 
640.576  1.63900000e+03 
640.540  1.62900000e+03 
640.504  1.55200000e+03 
640.468  1.63500000e+03 
640.432  1.60000000e+03 
640.396  1.57600000e+03 
640.360  1.56700000e+03 
640.324  1.52800000e+03 
640.289  1.55400000e+03 
640.253  1.53500000e+03 
640.217  1.58500000e+03 
640.181  1.53800000e+03 
640.145  1.59800000e+03 
640.109  1.57000000e+03 
640.073  1.53900000e+03 
640.037  1.55300000e+03 
640.001  1.53500000e+03 
639.965  1.54700000e+03 
639.929  1.51300000e+03 
639.894  1.56800000e+03 
639.858  1.50700000e+03 
639.822  1.57300000e+03 
639.786  1.51900000e+03 
639.750  1.54800000e+03 
639.714  1.49100000e+03 
639.678  1.54000000e+03 
639.642  1.50900000e+03 
639.606  1.48200000e+03 
639.570  1.56000000e+03 
639.534  1.52100000e+03 
639.498  1.56400000e+03 
639.463  1.51400000e+03 
639.427  1.57500000e+03 
639.391  1.55400000e+03 
639.355  1.52600000e+03 
639.319  1.44600000e+03 
639.283  1.50400000e+03 
639.247  1.52500000e+03 
639.211  1.53100000e+03 
639.175  1.50800000e+03 
639.139  1.56200000e+03 
639.103  1.51100000e+03 
639.068  1.49600000e+03 
639.032  1.50600000e+03 
638.996  1.54800000e+03 
638.960  1.47000000e+03 
638.924  1.58300000e+03 
638.888  1.55200000e+03 
638.852  1.52300000e+03 
638.816  1.49800000e+03 
638.780  1.61500000e+03 
638.744  1.48300000e+03 
638.708  1.47900000e+03 
638.672  1.50600000e+03 
638.637  1.52900000e+03 
638.601  1.52600000e+03 
638.565  1.51300000e+03 
638.529  1.47200000e+03 
638.493  1.48100000e+03 
638.457  1.51800000e+03 
638.421  1.51000000e+03 
638.385  1.44200000e+03 
638.349  1.52500000e+03 
638.313  1.51400000e+03 
638.277  1.51200000e+03 
638.242  1.49500000e+03 
638.206  1.52700000e+03 
638.170  1.56400000e+03 
638.134  1.47200000e+03 
638.098  1.55300000e+03 
638.062  1.46800000e+03 
638.026  1.54100000e+03 
637.990  1.54100000e+03 
637.954  1.54100000e+03 
637.918  1.46300000e+03 
637.882  1.55200000e+03 
637.847  1.50800000e+03 
637.811  1.50800000e+03 
637.775  1.54100000e+03 
637.739  1.50600000e+03 
637.703  1.53500000e+03 
637.667  1.51500000e+03 
637.631  1.50900000e+03 
637.595  1.52700000e+03 
637.559  1.49900000e+03 
637.523  1.51200000e+03 
637.487  1.55500000e+03 
637.451  1.48600000e+03 
637.416  1.45800000e+03 
637.380  1.51900000e+03 
637.344  1.47300000e+03 
637.308  1.51400000e+03 
637.272  1.46700000e+03 
637.236  1.53400000e+03 
637.200  1.55900000e+03 
637.164  1.44600000e+03 
637.128  1.60700000e+03 
637.092  1.49600000e+03 
637.056  1.48900000e+03 
637.021  1.53100000e+03 
[ Region 10 Curve ]
BEcenter= 643.000 
BEwidth= -11.959 
Excitation= 1486.600
Time_p_channel= 256.000 
Size= 334
648.979  2.21800000e+03 
648.944  2.19700000e+03 
648.908  2.25400000e+03 
648.872  2.19000000e+03 
648.836  2.20700000e+03 
648.800  2.22800000e+03 
648.764  2.23600000e+03 
648.728  2.18500000e+03 
648.692  2.22200000e+03 
648.656  2.24300000e+03 
648.620  2.23700000e+03 
648.584  2.23300000e+03 
648.549  2.21900000e+03 
648.513  2.30200000e+03 
648.477  2.20600000e+03 
648.441  2.22000000e+03 
648.405  2.21900000e+03 
648.369  2.32100000e+03 
648.333  2.25900000e+03 
648.297  2.33900000e+03 
648.261  2.26300000e+03 
648.225  2.35300000e+03 
648.189  2.32600000e+03 
648.153  2.38400000e+03 
648.118  2.24800000e+03 
648.082  2.29500000e+03 
648.046  2.23300000e+03 
648.010  2.20600000e+03 
647.974  2.25300000e+03 
647.938  2.32500000e+03 
647.902  2.28200000e+03 
647.866  2.28500000e+03 
647.830  2.33300000e+03 
647.794  2.44000000e+03 
647.758  2.29600000e+03 
647.723  2.31400000e+03 
647.687  2.32700000e+03 
647.651  2.37400000e+03 
647.615  2.28700000e+03 
647.579  2.39500000e+03 
647.543  2.33600000e+03 
647.507  2.36000000e+03 
647.471  2.45000000e+03 
647.435  2.34300000e+03 
647.399  2.26800000e+03 
647.363  2.37900000e+03 
647.328  2.42100000e+03 
647.292  2.33600000e+03 
647.256  2.41500000e+03 
647.220  2.31200000e+03 
647.184  2.39300000e+03 
647.148  2.35000000e+03 
647.112  2.33100000e+03 
647.076  2.36700000e+03 
647.040  2.45000000e+03 
647.004  2.41400000e+03 
646.968  2.44200000e+03 
646.932  2.43100000e+03 
646.897  2.48100000e+03 
646.861  2.33900000e+03 
646.825  2.41900000e+03 
646.789  2.46000000e+03 
646.753  2.54300000e+03 
646.717  2.49800000e+03 
646.681  2.52700000e+03 
646.645  2.39400000e+03 
646.609  2.50100000e+03 
646.573  2.53300000e+03 
646.537  2.52300000e+03 
646.502  2.59800000e+03 
646.466  2.53900000e+03 
646.430  2.58500000e+03 
646.394  2.54000000e+03 
646.358  2.54600000e+03 
646.322  2.56400000e+03 
646.286  2.58900000e+03 
646.250  2.65900000e+03 
646.214  2.55500000e+03 
646.178  2.69100000e+03 
646.142  2.64600000e+03 
646.106  2.71400000e+03 
646.071  2.63600000e+03 
646.035  2.62500000e+03 
645.999  2.80100000e+03 
645.963  2.65100000e+03 
645.927  2.77400000e+03 
645.891  2.69900000e+03 
645.855  2.75600000e+03 
645.819  2.77800000e+03 
645.783  2.71900000e+03 
645.747  2.80500000e+03 
645.711  2.87100000e+03 
645.676  2.88400000e+03 
645.640  2.92200000e+03 
645.604  2.91200000e+03 
645.568  2.91000000e+03 
645.532  2.89200000e+03 
645.496  2.89100000e+03 
645.460  2.96500000e+03 
645.424  2.90000000e+03 
645.388  3.11800000e+03 
645.352  3.03000000e+03 
645.316  2.90800000e+03 
645.280  3.03900000e+03 
645.245  3.03300000e+03 
645.209  3.15600000e+03 
645.173  3.10600000e+03 
645.137  2.96100000e+03 
645.101  3.16800000e+03 
645.065  3.13800000e+03 
645.029  3.14900000e+03 
644.993  3.12400000e+03 
644.957  3.20100000e+03 
644.921  3.25500000e+03 
644.885  3.24000000e+03 
644.850  3.18600000e+03 
644.814  3.32200000e+03 
644.778  3.29200000e+03 
644.742  3.26900000e+03 
644.706  3.32500000e+03 
644.670  3.40100000e+03 
644.634  3.35700000e+03 
644.598  3.30000000e+03 
644.562  3.38000000e+03 
644.526  3.34800000e+03 
644.490  3.39300000e+03 
644.454  3.37800000e+03 
644.419  3.44900000e+03 
644.383  3.49100000e+03 
644.347  3.42700000e+03 
644.311  3.40200000e+03 
644.275  3.41000000e+03 
644.239  3.43200000e+03 
644.203  3.46100000e+03 
644.167  3.59100000e+03 
644.131  3.49900000e+03 
644.095  3.51200000e+03 
644.059  3.45900000e+03 
644.024  3.37000000e+03 
643.988  3.48600000e+03 
643.952  3.37500000e+03 
643.916  3.45100000e+03 
643.880  3.47300000e+03 
643.844  3.54800000e+03 
643.808  3.50700000e+03 
643.772  3.56500000e+03 
643.736  3.41800000e+03 
643.700  3.51500000e+03 
643.664  3.44800000e+03 
643.628  3.47400000e+03 
643.593  3.57200000e+03 
643.557  3.43200000e+03 
643.521  3.50400000e+03 
643.485  3.47900000e+03 
643.449  3.44100000e+03 
643.413  3.48900000e+03 
643.377  3.43400000e+03 
643.341  3.42100000e+03 
643.305  3.31200000e+03 
643.269  3.45100000e+03 
643.233  3.36900000e+03 
643.198  3.30300000e+03 
643.162  3.35200000e+03 
643.126  3.23900000e+03 
643.090  3.33100000e+03 
643.054  3.26400000e+03 
643.018  3.17500000e+03 
642.982  3.20900000e+03 
642.946  3.25500000e+03 
642.910  3.14500000e+03 
642.874  3.21100000e+03 
642.838  3.02400000e+03 
642.802  3.09700000e+03 
642.767  3.03000000e+03 
642.731  2.99400000e+03 
642.695  2.90500000e+03 
642.659  2.94100000e+03 
642.623  3.03500000e+03 
642.587  2.95600000e+03 
642.551  2.90000000e+03 
642.515  2.72700000e+03 
642.479  2.78600000e+03 
642.443  2.85200000e+03 
642.407  2.77200000e+03 
642.372  2.85600000e+03 
642.336  2.69800000e+03 
642.300  2.68000000e+03 
642.264  2.60900000e+03 
642.228  2.55300000e+03 
642.192  2.58300000e+03 
642.156  2.48100000e+03 
642.120  2.52800000e+03 
642.084  2.40700000e+03 
642.048  2.49400000e+03 
642.012  2.47700000e+03 
641.976  2.35600000e+03 
641.941  2.38100000e+03 
641.905  2.32300000e+03 
641.869  2.23900000e+03 
641.833  2.16300000e+03 
641.797  2.24000000e+03 
641.761  2.25300000e+03 
641.725  2.18200000e+03 
641.689  2.08800000e+03 
641.653  2.05700000e+03 
641.617  2.01400000e+03 
641.581  2.02400000e+03 
641.546  2.00900000e+03 
641.510  1.98000000e+03 
641.474  2.04100000e+03 
641.438  1.94600000e+03 
641.402  1.83200000e+03 
641.366  1.87200000e+03 
641.330  1.89500000e+03 
641.294  1.89500000e+03 
641.258  1.87800000e+03 
641.222  1.79400000e+03 
641.186  1.77200000e+03 
641.150  1.72300000e+03 
641.115  1.79700000e+03 
641.079  1.65600000e+03 
641.043  1.78400000e+03 
641.007  1.71600000e+03 
640.971  1.75100000e+03 
640.935  1.75800000e+03 
640.899  1.55400000e+03 
640.863  1.68200000e+03 
640.827  1.64300000e+03 
640.791  1.62000000e+03 
640.755  1.61400000e+03 
640.720  1.63600000e+03 
640.684  1.68400000e+03 
640.648  1.61900000e+03 
640.612  1.57000000e+03 
640.576  1.59500000e+03 
640.540  1.64400000e+03 
640.504  1.54700000e+03 
640.468  1.47400000e+03 
640.432  1.60400000e+03 
640.396  1.53700000e+03 
640.360  1.55800000e+03 
640.324  1.53900000e+03 
640.289  1.52700000e+03 
640.253  1.56000000e+03 
640.217  1.57100000e+03 
640.181  1.53800000e+03 
640.145  1.61000000e+03 
640.109  1.61400000e+03 
640.073  1.55900000e+03 
640.037  1.58600000e+03 
640.001  1.54900000e+03 
639.965  1.56300000e+03 
639.929  1.56100000e+03 
639.894  1.55000000e+03 
639.858  1.52500000e+03 
639.822  1.48500000e+03 
639.786  1.55600000e+03 
639.750  1.53600000e+03 
639.714  1.55600000e+03 
639.678  1.59200000e+03 
639.642  1.49300000e+03 
639.606  1.60500000e+03 
639.570  1.54100000e+03 
639.534  1.51900000e+03 
639.498  1.52900000e+03 
639.463  1.58800000e+03 
639.427  1.51300000e+03 
639.391  1.46500000e+03 
639.355  1.53700000e+03 
639.319  1.62800000e+03 
639.283  1.57000000e+03 
639.247  1.53800000e+03 
639.211  1.44400000e+03 
639.175  1.54300000e+03 
639.139  1.48600000e+03 
639.103  1.55000000e+03 
639.068  1.52200000e+03 
639.032  1.50500000e+03 
638.996  1.59300000e+03 
638.960  1.58100000e+03 
638.924  1.50600000e+03 
638.888  1.51900000e+03 
638.852  1.55300000e+03 
638.816  1.50900000e+03 
638.780  1.51500000e+03 
638.744  1.52300000e+03 
638.708  1.52500000e+03 
638.672  1.52000000e+03 
638.637  1.51800000e+03 
638.601  1.55700000e+03 
638.565  1.50700000e+03 
638.529  1.51500000e+03 
638.493  1.52700000e+03 
638.457  1.51800000e+03 
638.421  1.51500000e+03 
638.385  1.56100000e+03 
638.349  1.57300000e+03 
638.313  1.46800000e+03 
638.277  1.52000000e+03 
638.242  1.47600000e+03 
638.206  1.57100000e+03 
638.170  1.55100000e+03 
638.134  1.51000000e+03 
638.098  1.51400000e+03 
638.062  1.40600000e+03 
638.026  1.52300000e+03 
637.990  1.55500000e+03 
637.954  1.53700000e+03 
637.918  1.60400000e+03 
637.882  1.52500000e+03 
637.847  1.60400000e+03 
637.811  1.54200000e+03 
637.775  1.55300000e+03 
637.739  1.55400000e+03 
637.703  1.50200000e+03 
637.667  1.48700000e+03 
637.631  1.50200000e+03 
637.595  1.53500000e+03 
637.559  1.51200000e+03 
637.523  1.58500000e+03 
637.487  1.53100000e+03 
637.451  1.45700000e+03 
637.416  1.49300000e+03 
637.380  1.56900000e+03 
637.344  1.55400000e+03 
637.308  1.48200000e+03 
637.272  1.50300000e+03 
637.236  1.51300000e+03 
637.200  1.47700000e+03 
637.164  1.60100000e+03 
637.128  1.49600000e+03 
637.092  1.51400000e+03 
637.056  1.55900000e+03 
637.021  1.49500000e+03 
[ Region 11 Curve ]
BEcenter= 643.000 
BEwidth= -11.959 
Excitation= 1486.600
Time_p_channel= 256.000 
Size= 334
648.979  2.25800000e+03 
648.944  2.27200000e+03 
648.908  2.28800000e+03 
648.872  2.29000000e+03 
648.836  2.28200000e+03 
648.800  2.24700000e+03 
648.764  2.28800000e+03 
648.728  2.22300000e+03 
648.692  2.27800000e+03 
648.656  2.21500000e+03 
648.620  2.16100000e+03 
648.584  2.27900000e+03 
648.549  2.33300000e+03 
648.513  2.20200000e+03 
648.477  2.32800000e+03 
648.441  2.28300000e+03 
648.405  2.30700000e+03 
648.369  2.29000000e+03 
648.333  2.29100000e+03 
648.297  2.26700000e+03 
648.261  2.31600000e+03 
648.225  2.27400000e+03 
648.189  2.29800000e+03 
648.153  2.25300000e+03 
648.118  2.32200000e+03 
648.082  2.27400000e+03 
648.046  2.14100000e+03 
648.010  2.25000000e+03 
647.974  2.22800000e+03 
647.938  2.28900000e+03 
647.902  2.27900000e+03 
647.866  2.28400000e+03 
647.830  2.32500000e+03 
647.794  2.34000000e+03 
647.758  2.26700000e+03 
647.723  2.34100000e+03 
647.687  2.34600000e+03 
647.651  2.36500000e+03 
647.615  2.35700000e+03 
647.579  2.43400000e+03 
647.543  2.40100000e+03 
647.507  2.29200000e+03 
647.471  2.36700000e+03 
647.435  2.38500000e+03 
647.399  2.23300000e+03 
647.363  2.33200000e+03 
647.328  2.36300000e+03 
647.292  2.43800000e+03 
647.256  2.40900000e+03 
647.220  2.36900000e+03 
647.184  2.40000000e+03 
647.148  2.36400000e+03 
647.112  2.47100000e+03 
647.076  2.38700000e+03 
647.040  2.36100000e+03 
647.004  2.43700000e+03 
646.968  2.42600000e+03 
646.932  2.39200000e+03 
646.897  2.46000000e+03 
646.861  2.50500000e+03 
646.825  2.49900000e+03 
646.789  2.47300000e+03 
646.753  2.47400000e+03 
646.717  2.55200000e+03 
646.681  2.46100000e+03 
646.645  2.47000000e+03 
646.609  2.45600000e+03 
646.573  2.57500000e+03 
646.537  2.56200000e+03 
646.502  2.52800000e+03 
646.466  2.50500000e+03 
646.430  2.62900000e+03 
646.394  2.65800000e+03 
646.358  2.75100000e+03 
646.322  2.55700000e+03 
646.286  2.63200000e+03 
646.250  2.71700000e+03 
646.214  2.67200000e+03 
646.178  2.67300000e+03 
646.142  2.62900000e+03 
646.106  2.67100000e+03 
646.071  2.68300000e+03 
646.035  2.65100000e+03 
645.999  2.73200000e+03 
645.963  2.76600000e+03 
645.927  2.83900000e+03 
645.891  2.82900000e+03 
645.855  2.86400000e+03 
645.819  2.85000000e+03 
645.783  2.82600000e+03 
645.747  2.84700000e+03 
645.711  2.84300000e+03 
645.676  2.93900000e+03 
645.640  2.85400000e+03 
645.604  2.82500000e+03 
645.568  2.94700000e+03 
645.532  2.97200000e+03 
645.496  3.06200000e+03 
645.460  2.96800000e+03 
645.424  2.93000000e+03 
645.388  3.05800000e+03 
645.352  2.99900000e+03 
645.316  3.06700000e+03 
645.280  3.08200000e+03 
645.245  3.12200000e+03 
645.209  3.07900000e+03 
645.173  3.12800000e+03 
645.137  3.04200000e+03 
645.101  3.09500000e+03 
645.065  3.15000000e+03 
645.029  3.19100000e+03 
644.993  3.22500000e+03 
644.957  3.31400000e+03 
644.921  3.35000000e+03 
644.885  3.28300000e+03 
644.850  3.16500000e+03 
644.814  3.29100000e+03 
644.778  3.36200000e+03 
644.742  3.32200000e+03 
644.706  3.36300000e+03 
644.670  3.35800000e+03 
644.634  3.36100000e+03 
644.598  3.33400000e+03 
644.562  3.39100000e+03 
644.526  3.47800000e+03 
644.490  3.27900000e+03 
644.454  3.39600000e+03 
644.419  3.53700000e+03 
644.383  3.40200000e+03 
644.347  3.53600000e+03 
644.311  3.44300000e+03 
644.275  3.45900000e+03 
644.239  3.41300000e+03 
644.203  3.53000000e+03 
644.167  3.44700000e+03 
644.131  3.49000000e+03 
644.095  3.43700000e+03 
644.059  3.51700000e+03 
644.024  3.41100000e+03 
643.988  3.51400000e+03 
643.952  3.53300000e+03 
643.916  3.52600000e+03 
643.880  3.43300000e+03 
643.844  3.50500000e+03 
643.808  3.48200000e+03 
643.772  3.44200000e+03 
643.736  3.49400000e+03 
643.700  3.52600000e+03 
643.664  3.43200000e+03 
643.628  3.41700000e+03 
643.593  3.42000000e+03 
643.557  3.46400000e+03 
643.521  3.46300000e+03 
643.485  3.31700000e+03 
643.449  3.34800000e+03 
643.413  3.35700000e+03 
643.377  3.25200000e+03 
643.341  3.33700000e+03 
643.305  3.32300000e+03 
643.269  3.26400000e+03 
643.233  3.31600000e+03 
643.198  3.27900000e+03 
643.162  3.30300000e+03 
643.126  3.25700000e+03 
643.090  3.22200000e+03 
643.054  3.29200000e+03 
643.018  3.12600000e+03 
642.982  3.10800000e+03 
642.946  3.16900000e+03 
642.910  3.13000000e+03 
642.874  3.09400000e+03 
642.838  3.08800000e+03 
642.802  3.11400000e+03 
642.767  3.04300000e+03 
642.731  2.87300000e+03 
642.695  2.97400000e+03 
642.659  2.92000000e+03 
642.623  2.89100000e+03 
642.587  2.86200000e+03 
642.551  2.82000000e+03 
642.515  2.80900000e+03 
642.479  2.63300000e+03 
642.443  2.76000000e+03 
642.407  2.74800000e+03 
642.372  2.69100000e+03 
642.336  2.61700000e+03 
642.300  2.65100000e+03 
642.264  2.55700000e+03 
642.228  2.53400000e+03 
642.192  2.41900000e+03 
642.156  2.52000000e+03 
642.120  2.47800000e+03 
642.084  2.45700000e+03 
642.048  2.41700000e+03 
642.012  2.31800000e+03 
641.976  2.33400000e+03 
641.941  2.32300000e+03 
641.905  2.35300000e+03 
641.869  2.21800000e+03 
641.833  2.19400000e+03 
641.797  2.10700000e+03 
641.761  2.10400000e+03 
641.725  2.16900000e+03 
641.689  2.09200000e+03 
641.653  2.09900000e+03 
641.617  2.01800000e+03 
641.581  2.07700000e+03 
641.546  1.93200000e+03 
641.510  1.96400000e+03 
641.474  1.89600000e+03 
641.438  1.87700000e+03 
641.402  1.84100000e+03 
641.366  1.97100000e+03 
641.330  1.83300000e+03 
641.294  1.88900000e+03 
641.258  1.83400000e+03 
641.222  1.78900000e+03 
641.186  1.75200000e+03 
641.150  1.71700000e+03 
641.115  1.74300000e+03 
641.079  1.76100000e+03 
641.043  1.77600000e+03 
641.007  1.71500000e+03 
640.971  1.68700000e+03 
640.935  1.72200000e+03 
640.899  1.65700000e+03 
640.863  1.62000000e+03 
640.827  1.56500000e+03 
640.791  1.58100000e+03 
640.755  1.59900000e+03 
640.720  1.57100000e+03 
640.684  1.62100000e+03 
640.648  1.57100000e+03 
640.612  1.59300000e+03 
640.576  1.53600000e+03 
640.540  1.62600000e+03 
640.504  1.67000000e+03 
640.468  1.62900000e+03 
640.432  1.56300000e+03 
640.396  1.62700000e+03 
640.360  1.57800000e+03 
640.324  1.59300000e+03 
640.289  1.53800000e+03 
640.253  1.56200000e+03 
640.217  1.56000000e+03 
640.181  1.57800000e+03 
640.145  1.59000000e+03 
640.109  1.54800000e+03 
640.073  1.43400000e+03 
640.037  1.55900000e+03 
640.001  1.53500000e+03 
639.965  1.55900000e+03 
639.929  1.52400000e+03 
639.894  1.56500000e+03 
639.858  1.53000000e+03 
639.822  1.55000000e+03 
639.786  1.55200000e+03 
639.750  1.59600000e+03 
639.714  1.57900000e+03 
639.678  1.59900000e+03 
639.642  1.59800000e+03 
639.606  1.62400000e+03 
639.570  1.54500000e+03 
639.534  1.57100000e+03 
639.498  1.50100000e+03 
639.463  1.55900000e+03 
639.427  1.52700000e+03 
639.391  1.55300000e+03 
639.355  1.56700000e+03 
639.319  1.60400000e+03 
639.283  1.53500000e+03 
639.247  1.54200000e+03 
639.211  1.53400000e+03 
639.175  1.52600000e+03 
639.139  1.59200000e+03 
639.103  1.62400000e+03 
639.068  1.54500000e+03 
639.032  1.51200000e+03 
638.996  1.48900000e+03 
638.960  1.48300000e+03 
638.924  1.51400000e+03 
638.888  1.49800000e+03 
638.852  1.52500000e+03 
638.816  1.52200000e+03 
638.780  1.57200000e+03 
638.744  1.58100000e+03 
638.708  1.58800000e+03 
638.672  1.55000000e+03 
638.637  1.51100000e+03 
638.601  1.62500000e+03 
638.565  1.49000000e+03 
638.529  1.52800000e+03 
638.493  1.61900000e+03 
638.457  1.53700000e+03 
638.421  1.55900000e+03 
638.385  1.51900000e+03 
638.349  1.50300000e+03 
638.313  1.57800000e+03 
638.277  1.60800000e+03 
638.242  1.57400000e+03 
638.206  1.53100000e+03 
638.170  1.54300000e+03 
638.134  1.57800000e+03 
638.098  1.53100000e+03 
638.062  1.58100000e+03 
638.026  1.57900000e+03 
637.990  1.54400000e+03 
637.954  1.52700000e+03 
637.918  1.47500000e+03 
637.882  1.51000000e+03 
637.847  1.58500000e+03 
637.811  1.56500000e+03 
637.775  1.51500000e+03 
637.739  1.54200000e+03 
637.703  1.54900000e+03 
637.667  1.57700000e+03 
637.631  1.55300000e+03 
637.595  1.54800000e+03 
637.559  1.60600000e+03 
637.523  1.50600000e+03 
637.487  1.55000000e+03 
637.451  1.54300000e+03 
637.416  1.50800000e+03 
637.380  1.49700000e+03 
637.344  1.59500000e+03 
637.308  1.57000000e+03 
637.272  1.59200000e+03 
637.236  1.58400000e+03 
637.200  1.50200000e+03 
637.164  1.46900000e+03 
637.128  1.56900000e+03 
637.092  1.53200000e+03 
637.056  1.58700000e+03 
637.021  1.56600000e+03 
[ Region 12 Curve ]
BEcenter= 643.000 
BEwidth= -11.959 
Excitation= 1486.600
Time_p_channel= 256.000 
Size= 334
648.979  2.24500000e+03 
648.944  2.26100000e+03 
648.908  2.14800000e+03 
648.872  2.29000000e+03 
648.836  2.33200000e+03 
648.800  2.38900000e+03 
648.764  2.28400000e+03 
648.728  2.26400000e+03 
648.692  2.30700000e+03 
648.656  2.32400000e+03 
648.620  2.22800000e+03 
648.584  2.28200000e+03 
648.549  2.33000000e+03 
648.513  2.29000000e+03 
648.477  2.23600000e+03 
648.441  2.27100000e+03 
648.405  2.21000000e+03 
648.369  2.37800000e+03 
648.333  2.29600000e+03 
648.297  2.22700000e+03 
648.261  2.33500000e+03 
648.225  2.32200000e+03 
648.189  2.32700000e+03 
648.153  2.35100000e+03 
648.118  2.39000000e+03 
648.082  2.27900000e+03 
648.046  2.31600000e+03 
648.010  2.21900000e+03 
647.974  2.34000000e+03 
647.938  2.30500000e+03 
647.902  2.36000000e+03 
647.866  2.24100000e+03 
647.830  2.25000000e+03 
647.794  2.30500000e+03 
647.758  2.21700000e+03 
647.723  2.25800000e+03 
647.687  2.33400000e+03 
647.651  2.35800000e+03 
647.615  2.31200000e+03 
647.579  2.32600000e+03 
647.543  2.41900000e+03 
647.507  2.27900000e+03 
647.471  2.37300000e+03 
647.435  2.33800000e+03 
647.399  2.41300000e+03 
647.363  2.36800000e+03 
647.328  2.38700000e+03 
647.292  2.37900000e+03 
647.256  2.47100000e+03 
647.220  2.41500000e+03 
647.184  2.50700000e+03 
647.148  2.43300000e+03 
647.112  2.44400000e+03 
647.076  2.47800000e+03 
647.040  2.36000000e+03 
647.004  2.50000000e+03 
646.968  2.52300000e+03 
646.932  2.44400000e+03 
646.897  2.41200000e+03 
646.861  2.48200000e+03 
646.825  2.46200000e+03 
646.789  2.49000000e+03 
646.753  2.53000000e+03 
646.717  2.63400000e+03 
646.681  2.47500000e+03 
646.645  2.63100000e+03 
646.609  2.50100000e+03 
646.573  2.59000000e+03 
646.537  2.53600000e+03 
646.502  2.58900000e+03 
646.466  2.64300000e+03 
646.430  2.63700000e+03 
646.394  2.74500000e+03 
646.358  2.63700000e+03 
646.322  2.61900000e+03 
646.286  2.62200000e+03 
646.250  2.63800000e+03 
646.214  2.72500000e+03 
646.178  2.69600000e+03 
646.142  2.63500000e+03 
646.106  2.75800000e+03 
646.071  2.71700000e+03 
646.035  2.73800000e+03 
645.999  2.85700000e+03 
645.963  2.79100000e+03 
645.927  2.79600000e+03 
645.891  2.88500000e+03 
645.855  2.80500000e+03 
645.819  2.84800000e+03 
645.783  2.89900000e+03 
645.747  2.94900000e+03 
645.711  2.98000000e+03 
645.676  2.91600000e+03 
645.640  3.03400000e+03 
645.604  3.01200000e+03 
645.568  3.11300000e+03 
645.532  3.02700000e+03 
645.496  3.00400000e+03 
645.460  3.11400000e+03 
645.424  3.16300000e+03 
645.388  3.06100000e+03 
645.352  3.04200000e+03 
645.316  3.00900000e+03 
645.280  3.08500000e+03 
645.245  3.30100000e+03 
645.209  3.16000000e+03 
645.173  3.16600000e+03 
645.137  3.15700000e+03 
645.101  3.27800000e+03 
645.065  3.25300000e+03 
645.029  3.22800000e+03 
644.993  3.30000000e+03 
644.957  3.30900000e+03 
644.921  3.29500000e+03 
644.885  3.37200000e+03 
644.850  3.28400000e+03 
644.814  3.29900000e+03 
644.778  3.24700000e+03 
644.742  3.34700000e+03 
644.706  3.38900000e+03 
644.670  3.38900000e+03 
644.634  3.33300000e+03 
644.598  3.46400000e+03 
644.562  3.39400000e+03 
644.526  3.50200000e+03 
644.490  3.35400000e+03 
644.454  3.40400000e+03 
644.419  3.34300000e+03 
644.383  3.43500000e+03 
644.347  3.40400000e+03 
644.311  3.52000000e+03 
644.275  3.43600000e+03 
644.239  3.57500000e+03 
644.203  3.50700000e+03 
644.167  3.45900000e+03 
644.131  3.45000000e+03 
644.095  3.50000000e+03 
644.059  3.50600000e+03 
644.024  3.51300000e+03 
643.988  3.53800000e+03 
643.952  3.51700000e+03 
643.916  3.60100000e+03 
643.880  3.45500000e+03 
643.844  3.52400000e+03 
643.808  3.40100000e+03 
643.772  3.59200000e+03 
643.736  3.38300000e+03 
643.700  3.41500000e+03 
643.664  3.38400000e+03 
643.628  3.43500000e+03 
643.593  3.37800000e+03 
643.557  3.29000000e+03 
643.521  3.31400000e+03 
643.485  3.40900000e+03 
643.449  3.24900000e+03 
643.413  3.29500000e+03 
643.377  3.37000000e+03 
643.341  3.26100000e+03 
643.305  3.23300000e+03 
643.269  3.14300000e+03 
643.233  3.29600000e+03 
643.198  3.21100000e+03 
643.162  3.12200000e+03 
643.126  3.19200000e+03 
643.090  3.19800000e+03 
643.054  3.08600000e+03 
643.018  3.10100000e+03 
642.982  3.07200000e+03 
642.946  3.00200000e+03 
642.910  3.03700000e+03 
642.874  3.01800000e+03 
642.838  3.00300000e+03 
642.802  2.95500000e+03 
642.767  2.93400000e+03 
642.731  2.88400000e+03 
642.695  2.73700000e+03 
642.659  2.68900000e+03 
642.623  2.82600000e+03 
642.587  2.63500000e+03 
642.551  2.74800000e+03 
642.515  2.62800000e+03 
642.479  2.63900000e+03 
642.443  2.59600000e+03 
642.407  2.62200000e+03 
642.372  2.55100000e+03 
642.336  2.52700000e+03 
642.300  2.51600000e+03 
642.264  2.37500000e+03 
642.228  2.44500000e+03 
642.192  2.47300000e+03 
642.156  2.41600000e+03 
642.120  2.28300000e+03 
642.084  2.28600000e+03 
642.048  2.29400000e+03 
642.012  2.23100000e+03 
641.976  2.17900000e+03 
641.941  2.11600000e+03 
641.905  2.09700000e+03 
641.869  2.10300000e+03 
641.833  2.13200000e+03 
641.797  2.02700000e+03 
641.761  2.00600000e+03 
641.725  2.06200000e+03 
641.689  2.05100000e+03 
641.653  1.92000000e+03 
641.617  1.99400000e+03 
641.581  1.86500000e+03 
641.546  1.86700000e+03 
641.510  1.79900000e+03 
641.474  1.84000000e+03 
641.438  1.81800000e+03 
641.402  1.84900000e+03 
641.366  1.77400000e+03 
641.330  1.78400000e+03 
641.294  1.82700000e+03 
641.258  1.69400000e+03 
641.222  1.78200000e+03 
641.186  1.68200000e+03 
641.150  1.74600000e+03 
641.115  1.71200000e+03 
641.079  1.63800000e+03 
641.043  1.66600000e+03 
641.007  1.63800000e+03 
640.971  1.68000000e+03 
640.935  1.64200000e+03 
640.899  1.64300000e+03 
640.863  1.62900000e+03 
640.827  1.66900000e+03 
640.791  1.60400000e+03 
640.755  1.61200000e+03 
640.720  1.60100000e+03 
640.684  1.60400000e+03 
640.648  1.55500000e+03 
640.612  1.58200000e+03 
640.576  1.59600000e+03 
640.540  1.61200000e+03 
640.504  1.56900000e+03 
640.468  1.49200000e+03 
640.432  1.58500000e+03 
640.396  1.62400000e+03 
640.360  1.61800000e+03 
640.324  1.55500000e+03 
640.289  1.61300000e+03 
640.253  1.58300000e+03 
640.217  1.57000000e+03 
640.181  1.60000000e+03 
640.145  1.69000000e+03 
640.109  1.54600000e+03 
640.073  1.49000000e+03 
640.037  1.55200000e+03 
640.001  1.54000000e+03 
639.965  1.57100000e+03 
639.929  1.55000000e+03 
639.894  1.54400000e+03 
639.858  1.57600000e+03 
639.822  1.54400000e+03 
639.786  1.55600000e+03 
639.750  1.55600000e+03 
639.714  1.57800000e+03 
639.678  1.52800000e+03 
639.642  1.51700000e+03 
639.606  1.53200000e+03 
639.570  1.68500000e+03 
639.534  1.54000000e+03 
639.498  1.61100000e+03 
639.463  1.60300000e+03 
639.427  1.55100000e+03 
639.391  1.53100000e+03 
639.355  1.57500000e+03 
639.319  1.58000000e+03 
639.283  1.60400000e+03 
639.247  1.56300000e+03 
639.211  1.51900000e+03 
639.175  1.65700000e+03 
639.139  1.53100000e+03 
639.103  1.55200000e+03 
639.068  1.49600000e+03 
639.032  1.53700000e+03 
638.996  1.58600000e+03 
638.960  1.55000000e+03 
638.924  1.49900000e+03 
638.888  1.55700000e+03 
638.852  1.58100000e+03 
638.816  1.56500000e+03 
638.780  1.52900000e+03 
638.744  1.63100000e+03 
638.708  1.55500000e+03 
638.672  1.54200000e+03 
638.637  1.59400000e+03 
638.601  1.53500000e+03 
638.565  1.51600000e+03 
638.529  1.53000000e+03 
638.493  1.59500000e+03 
638.457  1.58500000e+03 
638.421  1.53000000e+03 
638.385  1.54100000e+03 
638.349  1.58100000e+03 
638.313  1.58000000e+03 
638.277  1.50800000e+03 
638.242  1.55400000e+03 
638.206  1.61100000e+03 
638.170  1.61900000e+03 
638.134  1.62100000e+03 
638.098  1.59100000e+03 
638.062  1.51600000e+03 
638.026  1.51000000e+03 
637.990  1.55600000e+03 
637.954  1.51100000e+03 
637.918  1.64100000e+03 
637.882  1.61900000e+03 
637.847  1.63000000e+03 
637.811  1.51700000e+03 
637.775  1.54400000e+03 
637.739  1.53100000e+03 
637.703  1.56800000e+03 
637.667  1.58500000e+03 
637.631  1.51500000e+03 
637.595  1.52500000e+03 
637.559  1.52200000e+03 
637.523  1.54200000e+03 
637.487  1.57100000e+03 
637.451  1.61700000e+03 
637.416  1.58300000e+03 
637.380  1.51000000e+03 
637.344  1.51900000e+03 
637.308  1.50300000e+03 
637.272  1.58600000e+03 
637.236  1.50900000e+03 
637.200  1.55300000e+03 
637.164  1.55600000e+03 
637.128  1.57800000e+03 
637.092  1.58700000e+03 
637.056  1.57300000e+03 
637.021  1.52500000e+03 
