[ Experiment Parameters ]
Experiment Description= <none> 
Number_of_Regions_in_Experiment= 29 

Original_File_name= c:\alexesca\data\97080301.xps 
Instrument= ESCA-West
Date= 08-03-1997
Time=  16:53:27

[ Region 1 Parameters ]
Region_Description = Mn for XPD                         
BEcenter(eV) = 643.000000
BEwidth(eV) = 12.000000
BEstep(eV) = 0.035938
Dwell_Time(sec) = 1.000000
N_o_scans = 1  
N_o_Channels = 334  
Excitation_Energy = 0.000000  
Scan_mode = 0  (DITHERED)

[ Region 2 Parameters ]
Region_Description = Mn for XPD                         
BEcenter(eV) = 643.000000
BEwidth(eV) = 12.000000
BEstep(eV) = 0.035938
Dwell_Time(sec) = 1.000000
N_o_scans = 1  
N_o_Channels = 334  
Excitation_Energy = 0.000000  
Scan_mode = 0  (DITHERED)

[ Region 3 Parameters ]
Region_Description = Mn for XPD                         
BEcenter(eV) = 643.000000
BEwidth(eV) = 12.000000
BEstep(eV) = 0.035938
Dwell_Time(sec) = 1.000000
N_o_scans = 1  
N_o_Channels = 334  
Excitation_Energy = 0.000000  
Scan_mode = 0  (DITHERED)

[ Region 4 Parameters ]
Region_Description = Mn for XPD                         
BEcenter(eV) = 643.000000
BEwidth(eV) = 12.000000
BEstep(eV) = 0.035938
Dwell_Time(sec) = 1.000000
N_o_scans = 1  
N_o_Channels = 334  
Excitation_Energy = 0.000000  
Scan_mode = 0  (DITHERED)

[ Region 5 Parameters ]
Region_Description = Mn for XPD                         
BEcenter(eV) = 643.000000
BEwidth(eV) = 12.000000
BEstep(eV) = 0.035938
Dwell_Time(sec) = 1.000000
N_o_scans = 1  
N_o_Channels = 334  
Excitation_Energy = 0.000000  
Scan_mode = 0  (DITHERED)

[ Region 6 Parameters ]
Region_Description = Mn for XPD                         
BEcenter(eV) = 643.000000
BEwidth(eV) = 12.000000
BEstep(eV) = 0.035938
Dwell_Time(sec) = 1.000000
N_o_scans = 1  
N_o_Channels = 334  
Excitation_Energy = 0.000000  
Scan_mode = 0  (DITHERED)

[ Region 7 Parameters ]
Region_Description = Mn for XPD                         
BEcenter(eV) = 643.000000
BEwidth(eV) = 12.000000
BEstep(eV) = 0.035938
Dwell_Time(sec) = 1.000000
N_o_scans = 1  
N_o_Channels = 334  
Excitation_Energy = 0.000000  
Scan_mode = 0  (DITHERED)

[ Region 8 Parameters ]
Region_Description = Mn for XPD                         
BEcenter(eV) = 643.000000
BEwidth(eV) = 12.000000
BEstep(eV) = 0.035938
Dwell_Time(sec) = 1.000000
N_o_scans = 1  
N_o_Channels = 334  
Excitation_Energy = 0.000000  
Scan_mode = 0  (DITHERED)

[ Region 9 Parameters ]
Region_Description = Mn for XPD                         
BEcenter(eV) = 643.000000
BEwidth(eV) = 12.000000
BEstep(eV) = 0.035938
Dwell_Time(sec) = 1.000000
N_o_scans = 1  
N_o_Channels = 334  
Excitation_Energy = 0.000000  
Scan_mode = 0  (DITHERED)

[ Region 10 Parameters ]
Region_Description = Mn for XPD                         
BEcenter(eV) = 643.000000
BEwidth(eV) = 12.000000
BEstep(eV) = 0.035938
Dwell_Time(sec) = 1.000000
N_o_scans = 1  
N_o_Channels = 334  
Excitation_Energy = 0.000000  
Scan_mode = 0  (DITHERED)

[ Region 11 Parameters ]
Region_Description = Mn for XPD                         
BEcenter(eV) = 643.000000
BEwidth(eV) = 12.000000
BEstep(eV) = 0.035938
Dwell_Time(sec) = 1.000000
N_o_scans = 1  
N_o_Channels = 334  
Excitation_Energy = 0.000000  
Scan_mode = 0  (DITHERED)

[ Region 12 Parameters ]
Region_Description = Mn for XPD                         
BEcenter(eV) = 643.000000
BEwidth(eV) = 12.000000
BEstep(eV) = 0.035938
Dwell_Time(sec) = 1.000000
N_o_scans = 1  
N_o_Channels = 334  
Excitation_Energy = 0.000000  
Scan_mode = 0  (DITHERED)

[ Region 13 Parameters ]
Region_Description = Mn for XPD                         
BEcenter(eV) = 643.000000
BEwidth(eV) = 12.000000
BEstep(eV) = 0.035938
Dwell_Time(sec) = 1.000000
N_o_scans = 1  
N_o_Channels = 334  
Excitation_Energy = 0.000000  
Scan_mode = 0  (DITHERED)

[ Region 14 Parameters ]
Region_Description = Mn for XPD                         
BEcenter(eV) = 643.000000
BEwidth(eV) = 12.000000
BEstep(eV) = 0.035938
Dwell_Time(sec) = 1.000000
N_o_scans = 1  
N_o_Channels = 334  
Excitation_Energy = 0.000000  
Scan_mode = 0  (DITHERED)

[ Region 15 Parameters ]
Region_Description = Mn for XPD                         
BEcenter(eV) = 643.000000
BEwidth(eV) = 12.000000
BEstep(eV) = 0.035938
Dwell_Time(sec) = 1.000000
N_o_scans = 1  
N_o_Channels = 334  
Excitation_Energy = 0.000000  
Scan_mode = 0  (DITHERED)

[ Region 16 Parameters ]
Region_Description = Mn for XPD                         
BEcenter(eV) = 643.000000
BEwidth(eV) = 12.000000
BEstep(eV) = 0.035938
Dwell_Time(sec) = 1.000000
N_o_scans = 1  
N_o_Channels = 334  
Excitation_Energy = 0.000000  
Scan_mode = 0  (DITHERED)

[ Region 17 Parameters ]
Region_Description = Mn for XPD                         
BEcenter(eV) = 643.000000
BEwidth(eV) = 12.000000
BEstep(eV) = 0.035938
Dwell_Time(sec) = 1.000000
N_o_scans = 1  
N_o_Channels = 334  
Excitation_Energy = 0.000000  
Scan_mode = 0  (DITHERED)

[ Region 18 Parameters ]
Region_Description = Mn for XPD                         
BEcenter(eV) = 643.000000
BEwidth(eV) = 12.000000
BEstep(eV) = 0.035938
Dwell_Time(sec) = 1.000000
N_o_scans = 1  
N_o_Channels = 334  
Excitation_Energy = 0.000000  
Scan_mode = 0  (DITHERED)

[ Region 19 Parameters ]
Region_Description = Mn for XPD                         
BEcenter(eV) = 643.000000
BEwidth(eV) = 12.000000
BEstep(eV) = 0.035938
Dwell_Time(sec) = 1.000000
N_o_scans = 1  
N_o_Channels = 334  
Excitation_Energy = 0.000000  
Scan_mode = 0  (DITHERED)

[ Region 20 Parameters ]
Region_Description = Mn for XPD                         
BEcenter(eV) = 643.000000
BEwidth(eV) = 12.000000
BEstep(eV) = 0.035938
Dwell_Time(sec) = 1.000000
N_o_scans = 1  
N_o_Channels = 334  
Excitation_Energy = 0.000000  
Scan_mode = 0  (DITHERED)

[ Region 21 Parameters ]
Region_Description = Mn for XPD                         
BEcenter(eV) = 643.000000
BEwidth(eV) = 12.000000
BEstep(eV) = 0.035938
Dwell_Time(sec) = 1.000000
N_o_scans = 1  
N_o_Channels = 334  
Excitation_Energy = 0.000000  
Scan_mode = 0  (DITHERED)

[ Region 22 Parameters ]
Region_Description = Mn for XPD                         
BEcenter(eV) = 643.000000
BEwidth(eV) = 12.000000
BEstep(eV) = 0.035938
Dwell_Time(sec) = 1.000000
N_o_scans = 1  
N_o_Channels = 334  
Excitation_Energy = 0.000000  
Scan_mode = 0  (DITHERED)

[ Region 23 Parameters ]
Region_Description = Mn for XPD                         
BEcenter(eV) = 643.000000
BEwidth(eV) = 12.000000
BEstep(eV) = 0.035938
Dwell_Time(sec) = 1.000000
N_o_scans = 1  
N_o_Channels = 334  
Excitation_Energy = 0.000000  
Scan_mode = 0  (DITHERED)

[ Region 24 Parameters ]
Region_Description = Mn for XPD                         
BEcenter(eV) = 643.000000
BEwidth(eV) = 12.000000
BEstep(eV) = 0.035938
Dwell_Time(sec) = 1.000000
N_o_scans = 1  
N_o_Channels = 334  
Excitation_Energy = 0.000000  
Scan_mode = 0  (DITHERED)

[ Region 25 Parameters ]
Region_Description = Mn for XPD                         
BEcenter(eV) = 643.000000
BEwidth(eV) = 12.000000
BEstep(eV) = 0.035938
Dwell_Time(sec) = 1.000000
N_o_scans = 1  
N_o_Channels = 334  
Excitation_Energy = 0.000000  
Scan_mode = 0  (DITHERED)

[ Region 26 Parameters ]
Region_Description = Mn for XPD                         
BEcenter(eV) = 643.000000
BEwidth(eV) = 12.000000
BEstep(eV) = 0.035938
Dwell_Time(sec) = 1.000000
N_o_scans = 1  
N_o_Channels = 334  
Excitation_Energy = 0.000000  
Scan_mode = 0  (DITHERED)

[ Region 27 Parameters ]
Region_Description = Mn for XPD                         
BEcenter(eV) = 643.000000
BEwidth(eV) = 12.000000
BEstep(eV) = 0.035938
Dwell_Time(sec) = 1.000000
N_o_scans = 1  
N_o_Channels = 334  
Excitation_Energy = 0.000000  
Scan_mode = 0  (DITHERED)

[ Region 28 Parameters ]
Region_Description = Mn for XPD                         
BEcenter(eV) = 643.000000
BEwidth(eV) = 12.000000
BEstep(eV) = 0.035938
Dwell_Time(sec) = 1.000000
N_o_scans = 1  
N_o_Channels = 334  
Excitation_Energy = 0.000000  
Scan_mode = 0  (DITHERED)

[ Region 29 Parameters ]
Region_Description = Mn for XPD                         
BEcenter(eV) = 643.000000
BEwidth(eV) = 12.000000
BEstep(eV) = 0.035938
Dwell_Time(sec) = 1.000000
N_o_scans = 1  
N_o_Channels = 334  
Excitation_Energy = 0.000000  
Scan_mode = 0  (DITHERED)

[ Region 1 Curve ]
BEcenter= 643.000 
BEwidth= -11.959 
Excitation= 1486.600
Time_p_channel= 256.000 
Size= 334
648.979  7.47000000e+02 
648.944  7.06000000e+02 
648.908  7.12000000e+02 
648.872  7.42000000e+02 
648.836  7.53000000e+02 
648.800  6.99000000e+02 
648.764  7.65000000e+02 
648.728  7.17000000e+02 
648.692  7.05000000e+02 
648.656  7.26000000e+02 
648.620  6.60000000e+02 
648.584  7.36000000e+02 
648.549  6.99000000e+02 
648.513  7.44000000e+02 
648.477  6.91000000e+02 
648.441  7.32000000e+02 
648.405  7.72000000e+02 
648.369  7.24000000e+02 
648.333  7.36000000e+02 
648.297  7.13000000e+02 
648.261  7.47000000e+02 
648.225  7.17000000e+02 
648.189  7.64000000e+02 
648.153  7.47000000e+02 
648.118  7.86000000e+02 
648.082  7.21000000e+02 
648.046  7.15000000e+02 
648.010  6.99000000e+02 
647.974  7.27000000e+02 
647.938  7.25000000e+02 
647.902  7.04000000e+02 
647.866  7.57000000e+02 
647.830  7.50000000e+02 
647.794  7.05000000e+02 
647.758  7.39000000e+02 
647.723  7.53000000e+02 
647.687  7.50000000e+02 
647.651  6.93000000e+02 
647.615  7.30000000e+02 
647.579  7.22000000e+02 
647.543  7.20000000e+02 
647.507  7.49000000e+02 
647.471  7.03000000e+02 
647.435  7.23000000e+02 
647.399  7.27000000e+02 
647.363  7.21000000e+02 
647.328  7.72000000e+02 
647.292  6.96000000e+02 
647.256  7.22000000e+02 
647.220  7.23000000e+02 
647.184  6.83000000e+02 
647.148  7.22000000e+02 
647.112  7.61000000e+02 
647.076  7.23000000e+02 
647.040  6.96000000e+02 
647.004  7.31000000e+02 
646.968  7.43000000e+02 
646.932  7.53000000e+02 
646.897  7.45000000e+02 
646.861  7.55000000e+02 
646.825  7.11000000e+02 
646.789  7.07000000e+02 
646.753  7.36000000e+02 
646.717  7.16000000e+02 
646.681  7.60000000e+02 
646.645  6.91000000e+02 
646.609  7.57000000e+02 
646.573  7.32000000e+02 
646.537  7.58000000e+02 
646.502  7.52000000e+02 
646.466  7.32000000e+02 
646.430  7.10000000e+02 
646.394  7.40000000e+02 
646.358  7.51000000e+02 
646.322  7.87000000e+02 
646.286  7.84000000e+02 
646.250  7.31000000e+02 
646.214  7.67000000e+02 
646.178  7.34000000e+02 
646.142  7.67000000e+02 
646.106  7.37000000e+02 
646.071  7.64000000e+02 
646.035  7.63000000e+02 
645.999  7.61000000e+02 
645.963  7.23000000e+02 
645.927  7.17000000e+02 
645.891  7.68000000e+02 
645.855  7.41000000e+02 
645.819  7.36000000e+02 
645.783  7.74000000e+02 
645.747  7.46000000e+02 
645.711  7.04000000e+02 
645.676  7.48000000e+02 
645.640  8.14000000e+02 
645.604  7.34000000e+02 
645.568  7.73000000e+02 
645.532  8.13000000e+02 
645.496  7.50000000e+02 
645.460  7.38000000e+02 
645.424  7.54000000e+02 
645.388  7.35000000e+02 
645.352  7.67000000e+02 
645.316  7.74000000e+02 
645.280  7.75000000e+02 
645.245  7.73000000e+02 
645.209  7.47000000e+02 
645.173  7.65000000e+02 
645.137  7.78000000e+02 
645.101  7.52000000e+02 
645.065  7.97000000e+02 
645.029  7.31000000e+02 
644.993  8.12000000e+02 
644.957  7.89000000e+02 
644.921  8.02000000e+02 
644.885  7.48000000e+02 
644.850  8.21000000e+02 
644.814  7.61000000e+02 
644.778  7.93000000e+02 
644.742  7.85000000e+02 
644.706  8.04000000e+02 
644.670  8.35000000e+02 
644.634  8.31000000e+02 
644.598  8.12000000e+02 
644.562  8.24000000e+02 
644.526  8.79000000e+02 
644.490  8.29000000e+02 
644.454  8.34000000e+02 
644.419  8.40000000e+02 
644.383  8.39000000e+02 
644.347  8.42000000e+02 
644.311  8.93000000e+02 
644.275  8.72000000e+02 
644.239  8.58000000e+02 
644.203  8.78000000e+02 
644.167  8.53000000e+02 
644.131  8.87000000e+02 
644.095  9.05000000e+02 
644.059  8.13000000e+02 
644.024  8.30000000e+02 
643.988  8.32000000e+02 
643.952  8.24000000e+02 
643.916  9.17000000e+02 
643.880  8.19000000e+02 
643.844  8.94000000e+02 
643.808  8.58000000e+02 
643.772  9.27000000e+02 
643.736  8.91000000e+02 
643.700  9.07000000e+02 
643.664  9.70000000e+02 
643.628  8.85000000e+02 
643.593  8.76000000e+02 
643.557  9.01000000e+02 
643.521  9.06000000e+02 
643.485  9.73000000e+02 
643.449  9.31000000e+02 
643.413  8.78000000e+02 
643.377  9.11000000e+02 
643.341  9.29000000e+02 
643.305  9.70000000e+02 
643.269  9.80000000e+02 
643.233  9.10000000e+02 
643.198  9.60000000e+02 
643.162  9.68000000e+02 
643.126  9.32000000e+02 
643.090  9.39000000e+02 
643.054  9.33000000e+02 
643.018  9.66000000e+02 
642.982  9.54000000e+02 
642.946  9.62000000e+02 
642.910  9.46000000e+02 
642.874  9.62000000e+02 
642.838  1.02000000e+03 
642.802  9.69000000e+02 
642.767  9.69000000e+02 
642.731  9.70000000e+02 
642.695  1.00900000e+03 
642.659  9.61000000e+02 
642.623  9.49000000e+02 
642.587  9.95000000e+02 
642.551  9.81000000e+02 
642.515  9.57000000e+02 
642.479  9.54000000e+02 
642.443  9.45000000e+02 
642.407  9.60000000e+02 
642.372  9.50000000e+02 
642.336  9.93000000e+02 
642.300  9.81000000e+02 
642.264  9.75000000e+02 
642.228  9.50000000e+02 
642.192  9.34000000e+02 
642.156  9.62000000e+02 
642.120  9.53000000e+02 
642.084  9.82000000e+02 
642.048  9.43000000e+02 
642.012  9.98000000e+02 
641.976  9.37000000e+02 
641.941  9.42000000e+02 
641.905  8.86000000e+02 
641.869  8.98000000e+02 
641.833  9.56000000e+02 
641.797  9.00000000e+02 
641.761  8.65000000e+02 
641.725  9.27000000e+02 
641.689  9.00000000e+02 
641.653  8.64000000e+02 
641.617  9.41000000e+02 
641.581  9.08000000e+02 
641.546  8.48000000e+02 
641.510  8.71000000e+02 
641.474  8.38000000e+02 
641.438  8.73000000e+02 
641.402  9.00000000e+02 
641.366  8.56000000e+02 
641.330  8.59000000e+02 
641.294  8.33000000e+02 
641.258  8.46000000e+02 
641.222  8.02000000e+02 
641.186  7.75000000e+02 
641.150  7.76000000e+02 
641.115  7.37000000e+02 
641.079  8.12000000e+02 
641.043  7.78000000e+02 
641.007  7.48000000e+02 
640.971  7.54000000e+02 
640.935  7.89000000e+02 
640.899  7.68000000e+02 
640.863  7.39000000e+02 
640.827  7.19000000e+02 
640.791  6.97000000e+02 
640.755  6.78000000e+02 
640.720  7.00000000e+02 
640.684  7.12000000e+02 
640.648  7.38000000e+02 
640.612  7.11000000e+02 
640.576  7.02000000e+02 
640.540  7.03000000e+02 
640.504  6.89000000e+02 
640.468  6.37000000e+02 
640.432  6.73000000e+02 
640.396  6.57000000e+02 
640.360  6.49000000e+02 
640.324  6.29000000e+02 
640.289  6.52000000e+02 
640.253  6.62000000e+02 
640.217  6.32000000e+02 
640.181  6.14000000e+02 
640.145  6.32000000e+02 
640.109  6.20000000e+02 
640.073  6.37000000e+02 
640.037  6.43000000e+02 
640.001  5.96000000e+02 
639.965  6.33000000e+02 
639.929  5.74000000e+02 
639.894  6.14000000e+02 
639.858  6.22000000e+02 
639.822  6.08000000e+02 
639.786  6.19000000e+02 
639.750  6.32000000e+02 
639.714  6.21000000e+02 
639.678  6.56000000e+02 
639.642  5.82000000e+02 
639.606  5.96000000e+02 
639.570  5.87000000e+02 
639.534  5.61000000e+02 
639.498  5.94000000e+02 
639.463  6.28000000e+02 
639.427  5.86000000e+02 
639.391  6.09000000e+02 
639.355  5.87000000e+02 
639.319  5.52000000e+02 
639.283  6.28000000e+02 
639.247  5.81000000e+02 
639.211  5.96000000e+02 
639.175  6.13000000e+02 
639.139  5.86000000e+02 
639.103  5.74000000e+02 
639.068  5.73000000e+02 
639.032  6.17000000e+02 
638.996  5.89000000e+02 
638.960  6.03000000e+02 
638.924  5.96000000e+02 
638.888  6.27000000e+02 
638.852  5.97000000e+02 
638.816  6.32000000e+02 
638.780  6.03000000e+02 
638.744  5.79000000e+02 
638.708  5.79000000e+02 
638.672  6.17000000e+02 
638.637  5.86000000e+02 
638.601  6.15000000e+02 
638.565  5.91000000e+02 
638.529  5.95000000e+02 
638.493  5.91000000e+02 
638.457  6.08000000e+02 
638.421  5.46000000e+02 
638.385  5.90000000e+02 
638.349  6.49000000e+02 
638.313  6.04000000e+02 
638.277  6.25000000e+02 
638.242  6.07000000e+02 
638.206  5.73000000e+02 
638.170  6.02000000e+02 
638.134  5.98000000e+02 
638.098  5.67000000e+02 
638.062  5.61000000e+02 
638.026  5.56000000e+02 
637.990  6.12000000e+02 
637.954  6.09000000e+02 
637.918  6.19000000e+02 
637.882  6.28000000e+02 
637.847  6.20000000e+02 
637.811  5.98000000e+02 
637.775  5.66000000e+02 
637.739  5.67000000e+02 
637.703  5.96000000e+02 
637.667  5.57000000e+02 
637.631  5.59000000e+02 
637.595  6.10000000e+02 
637.559  5.62000000e+02 
637.523  5.71000000e+02 
637.487  5.73000000e+02 
637.451  5.90000000e+02 
637.416  6.13000000e+02 
637.380  5.96000000e+02 
637.344  6.22000000e+02 
637.308  6.79000000e+02 
637.272  5.78000000e+02 
637.236  6.02000000e+02 
637.200  5.96000000e+02 
637.164  6.41000000e+02 
637.128  5.81000000e+02 
637.092  6.06000000e+02 
637.056  6.19000000e+02 
637.021  5.60000000e+02 
[ Region 2 Curve ]
BEcenter= 643.000 
BEwidth= -11.959 
Excitation= 1486.600
Time_p_channel= 256.000 
Size= 334
648.979  7.38000000e+02 
648.944  7.97000000e+02 
648.908  8.19000000e+02 
648.872  7.72000000e+02 
648.836  7.90000000e+02 
648.800  8.17000000e+02 
648.764  7.73000000e+02 
648.728  8.01000000e+02 
648.692  7.73000000e+02 
648.656  7.59000000e+02 
648.620  7.72000000e+02 
648.584  8.29000000e+02 
648.549  7.83000000e+02 
648.513  7.81000000e+02 
648.477  7.51000000e+02 
648.441  7.70000000e+02 
648.405  7.51000000e+02 
648.369  7.98000000e+02 
648.333  7.55000000e+02 
648.297  7.12000000e+02 
648.261  8.14000000e+02 
648.225  8.19000000e+02 
648.189  7.70000000e+02 
648.153  7.71000000e+02 
648.118  7.59000000e+02 
648.082  7.41000000e+02 
648.046  8.48000000e+02 
648.010  8.06000000e+02 
647.974  7.94000000e+02 
647.938  7.57000000e+02 
647.902  7.69000000e+02 
647.866  7.80000000e+02 
647.830  7.66000000e+02 
647.794  7.74000000e+02 
647.758  7.76000000e+02 
647.723  7.28000000e+02 
647.687  8.07000000e+02 
647.651  8.00000000e+02 
647.615  7.82000000e+02 
647.579  7.82000000e+02 
647.543  8.20000000e+02 
647.507  8.12000000e+02 
647.471  7.74000000e+02 
647.435  8.20000000e+02 
647.399  8.05000000e+02 
647.363  8.02000000e+02 
647.328  7.90000000e+02 
647.292  7.82000000e+02 
647.256  8.26000000e+02 
647.220  7.65000000e+02 
647.184  7.61000000e+02 
647.148  7.73000000e+02 
647.112  7.59000000e+02 
647.076  8.05000000e+02 
647.040  7.44000000e+02 
647.004  7.55000000e+02 
646.968  7.92000000e+02 
646.932  7.98000000e+02 
646.897  7.82000000e+02 
646.861  7.92000000e+02 
646.825  7.47000000e+02 
646.789  7.71000000e+02 
646.753  7.71000000e+02 
646.717  8.08000000e+02 
646.681  7.62000000e+02 
646.645  7.95000000e+02 
646.609  8.02000000e+02 
646.573  8.35000000e+02 
646.537  8.22000000e+02 
646.502  8.00000000e+02 
646.466  7.74000000e+02 
646.430  7.87000000e+02 
646.394  7.86000000e+02 
646.358  7.99000000e+02 
646.322  7.81000000e+02 
646.286  7.76000000e+02 
646.250  7.59000000e+02 
646.214  8.19000000e+02 
646.178  7.79000000e+02 
646.142  8.08000000e+02 
646.106  7.69000000e+02 
646.071  8.00000000e+02 
646.035  8.38000000e+02 
645.999  8.28000000e+02 
645.963  7.87000000e+02 
645.927  8.48000000e+02 
645.891  8.10000000e+02 
645.855  8.20000000e+02 
645.819  8.47000000e+02 
645.783  7.93000000e+02 
645.747  7.90000000e+02 
645.711  7.76000000e+02 
645.676  8.13000000e+02 
645.640  7.60000000e+02 
645.604  8.14000000e+02 
645.568  8.17000000e+02 
645.532  8.18000000e+02 
645.496  8.20000000e+02 
645.460  8.45000000e+02 
645.424  8.36000000e+02 
645.388  8.08000000e+02 
645.352  8.34000000e+02 
645.316  8.13000000e+02 
645.280  7.67000000e+02 
645.245  8.26000000e+02 
645.209  8.38000000e+02 
645.173  8.46000000e+02 
645.137  7.93000000e+02 
645.101  8.41000000e+02 
645.065  8.26000000e+02 
645.029  8.25000000e+02 
644.993  8.63000000e+02 
644.957  8.68000000e+02 
644.921  8.67000000e+02 
644.885  7.82000000e+02 
644.850  8.48000000e+02 
644.814  8.61000000e+02 
644.778  8.73000000e+02 
644.742  8.68000000e+02 
644.706  8.26000000e+02 
644.670  8.33000000e+02 
644.634  8.71000000e+02 
644.598  8.40000000e+02 
644.562  9.13000000e+02 
644.526  8.78000000e+02 
644.490  8.75000000e+02 
644.454  8.53000000e+02 
644.419  9.13000000e+02 
644.383  9.21000000e+02 
644.347  9.52000000e+02 
644.311  8.99000000e+02 
644.275  8.83000000e+02 
644.239  8.98000000e+02 
644.203  8.91000000e+02 
644.167  9.46000000e+02 
644.131  9.34000000e+02 
644.095  9.30000000e+02 
644.059  9.13000000e+02 
644.024  9.23000000e+02 
643.988  9.78000000e+02 
643.952  9.78000000e+02 
643.916  9.33000000e+02 
643.880  9.53000000e+02 
643.844  9.46000000e+02 
643.808  9.58000000e+02 
643.772  9.45000000e+02 
643.736  1.00100000e+03 
643.700  9.27000000e+02 
643.664  8.93000000e+02 
643.628  1.01400000e+03 
643.593  9.95000000e+02 
643.557  9.56000000e+02 
643.521  1.02000000e+03 
643.485  1.06400000e+03 
643.449  1.00700000e+03 
643.413  9.61000000e+02 
643.377  9.90000000e+02 
643.341  1.02300000e+03 
643.305  1.00800000e+03 
643.269  1.00200000e+03 
643.233  1.01900000e+03 
643.198  1.06500000e+03 
643.162  9.81000000e+02 
643.126  1.06100000e+03 
643.090  1.05100000e+03 
643.054  1.04100000e+03 
643.018  1.04200000e+03 
642.982  1.04400000e+03 
642.946  1.03300000e+03 
642.910  1.09100000e+03 
642.874  1.05500000e+03 
642.838  1.04100000e+03 
642.802  1.01700000e+03 
642.767  1.05400000e+03 
642.731  1.14400000e+03 
642.695  1.04200000e+03 
642.659  1.10500000e+03 
642.623  1.02400000e+03 
642.587  1.04200000e+03 
642.551  1.07300000e+03 
642.515  1.06400000e+03 
642.479  1.08100000e+03 
642.443  1.04400000e+03 
642.407  1.07600000e+03 
642.372  1.09900000e+03 
642.336  1.07000000e+03 
642.300  1.07000000e+03 
642.264  1.10300000e+03 
642.228  1.04500000e+03 
642.192  1.08900000e+03 
642.156  1.04900000e+03 
642.120  1.03000000e+03 
642.084  9.98000000e+02 
642.048  1.01700000e+03 
642.012  9.92000000e+02 
641.976  1.02700000e+03 
641.941  9.83000000e+02 
641.905  1.08000000e+03 
641.869  9.78000000e+02 
641.833  1.01100000e+03 
641.797  1.01400000e+03 
641.761  1.00500000e+03 
641.725  1.04100000e+03 
641.689  9.42000000e+02 
641.653  1.01000000e+03 
641.617  9.73000000e+02 
641.581  9.66000000e+02 
641.546  9.12000000e+02 
641.510  9.50000000e+02 
641.474  9.30000000e+02 
641.438  9.20000000e+02 
641.402  9.33000000e+02 
641.366  9.64000000e+02 
641.330  9.34000000e+02 
641.294  8.63000000e+02 
641.258  9.05000000e+02 
641.222  9.10000000e+02 
641.186  9.12000000e+02 
641.150  9.02000000e+02 
641.115  8.61000000e+02 
641.079  8.57000000e+02 
641.043  8.90000000e+02 
641.007  8.33000000e+02 
640.971  8.07000000e+02 
640.935  8.46000000e+02 
640.899  8.41000000e+02 
640.863  8.54000000e+02 
640.827  8.27000000e+02 
640.791  7.72000000e+02 
640.755  8.04000000e+02 
640.720  7.92000000e+02 
640.684  7.38000000e+02 
640.648  7.71000000e+02 
640.612  7.26000000e+02 
640.576  7.45000000e+02 
640.540  7.07000000e+02 
640.504  7.27000000e+02 
640.468  7.32000000e+02 
640.432  7.40000000e+02 
640.396  7.05000000e+02 
640.360  7.15000000e+02 
640.324  6.91000000e+02 
640.289  7.12000000e+02 
640.253  7.00000000e+02 
640.217  7.03000000e+02 
640.181  6.89000000e+02 
640.145  6.59000000e+02 
640.109  6.96000000e+02 
640.073  6.17000000e+02 
640.037  6.75000000e+02 
640.001  6.90000000e+02 
639.965  6.70000000e+02 
639.929  6.09000000e+02 
639.894  6.71000000e+02 
639.858  6.23000000e+02 
639.822  6.21000000e+02 
639.786  6.27000000e+02 
639.750  6.33000000e+02 
639.714  6.24000000e+02 
639.678  6.72000000e+02 
639.642  6.36000000e+02 
639.606  6.74000000e+02 
639.570  6.19000000e+02 
639.534  6.17000000e+02 
639.498  6.37000000e+02 
639.463  6.31000000e+02 
639.427  6.35000000e+02 
639.391  6.72000000e+02 
639.355  6.30000000e+02 
639.319  6.21000000e+02 
639.283  6.51000000e+02 
639.247  6.07000000e+02 
639.211  6.78000000e+02 
639.175  6.27000000e+02 
639.139  5.87000000e+02 
639.103  6.37000000e+02 
639.068  6.48000000e+02 
639.032  7.00000000e+02 
638.996  5.96000000e+02 
638.960  6.89000000e+02 
638.924  6.41000000e+02 
638.888  6.30000000e+02 
638.852  6.28000000e+02 
638.816  6.35000000e+02 
638.780  6.46000000e+02 
638.744  6.57000000e+02 
638.708  6.45000000e+02 
638.672  6.56000000e+02 
638.637  7.00000000e+02 
638.601  6.14000000e+02 
638.565  5.62000000e+02 
638.529  5.98000000e+02 
638.493  6.14000000e+02 
638.457  5.94000000e+02 
638.421  6.36000000e+02 
638.385  6.45000000e+02 
638.349  6.39000000e+02 
638.313  6.11000000e+02 
638.277  6.50000000e+02 
638.242  6.48000000e+02 
638.206  6.45000000e+02 
638.170  6.39000000e+02 
638.134  6.63000000e+02 
638.098  6.84000000e+02 
638.062  6.78000000e+02 
638.026  6.53000000e+02 
637.990  5.96000000e+02 
637.954  6.58000000e+02 
637.918  5.69000000e+02 
637.882  6.42000000e+02 
637.847  6.48000000e+02 
637.811  6.37000000e+02 
637.775  6.29000000e+02 
637.739  6.72000000e+02 
637.703  6.39000000e+02 
637.667  6.04000000e+02 
637.631  6.17000000e+02 
637.595  5.97000000e+02 
637.559  6.17000000e+02 
637.523  5.96000000e+02 
637.487  5.89000000e+02 
637.451  6.18000000e+02 
637.416  6.37000000e+02 
637.380  6.58000000e+02 
637.344  6.13000000e+02 
637.308  6.29000000e+02 
637.272  6.27000000e+02 
637.236  5.97000000e+02 
637.200  6.24000000e+02 
637.164  6.03000000e+02 
637.128  6.08000000e+02 
637.092  6.57000000e+02 
637.056  6.20000000e+02 
637.021  6.34000000e+02 
[ Region 3 Curve ]
BEcenter= 643.000 
BEwidth= -11.959 
Excitation= 1486.600
Time_p_channel= 256.000 
Size= 334
648.979  8.32000000e+02 
648.944  8.17000000e+02 
648.908  8.77000000e+02 
648.872  8.24000000e+02 
648.836  8.71000000e+02 
648.800  8.05000000e+02 
648.764  7.93000000e+02 
648.728  8.88000000e+02 
648.692  8.03000000e+02 
648.656  7.92000000e+02 
648.620  8.55000000e+02 
648.584  7.73000000e+02 
648.549  8.46000000e+02 
648.513  8.18000000e+02 
648.477  8.41000000e+02 
648.441  8.20000000e+02 
648.405  7.68000000e+02 
648.369  8.46000000e+02 
648.333  8.64000000e+02 
648.297  8.22000000e+02 
648.261  8.27000000e+02 
648.225  8.76000000e+02 
648.189  8.07000000e+02 
648.153  7.82000000e+02 
648.118  8.44000000e+02 
648.082  8.72000000e+02 
648.046  8.28000000e+02 
648.010  8.17000000e+02 
647.974  7.99000000e+02 
647.938  8.13000000e+02 
647.902  8.09000000e+02 
647.866  8.29000000e+02 
647.830  8.06000000e+02 
647.794  8.33000000e+02 
647.758  8.30000000e+02 
647.723  7.98000000e+02 
647.687  8.64000000e+02 
647.651  8.29000000e+02 
647.615  8.61000000e+02 
647.579  7.99000000e+02 
647.543  8.89000000e+02 
647.507  8.16000000e+02 
647.471  8.02000000e+02 
647.435  8.46000000e+02 
647.399  8.31000000e+02 
647.363  8.06000000e+02 
647.328  8.23000000e+02 
647.292  8.21000000e+02 
647.256  8.47000000e+02 
647.220  8.22000000e+02 
647.184  8.01000000e+02 
647.148  8.66000000e+02 
647.112  8.71000000e+02 
647.076  7.93000000e+02 
647.040  8.01000000e+02 
647.004  8.21000000e+02 
646.968  8.30000000e+02 
646.932  8.22000000e+02 
646.897  8.43000000e+02 
646.861  7.97000000e+02 
646.825  7.95000000e+02 
646.789  8.57000000e+02 
646.753  8.90000000e+02 
646.717  7.97000000e+02 
646.681  8.99000000e+02 
646.645  8.16000000e+02 
646.609  8.23000000e+02 
646.573  8.57000000e+02 
646.537  8.08000000e+02 
646.502  8.39000000e+02 
646.466  8.38000000e+02 
646.430  8.19000000e+02 
646.394  8.70000000e+02 
646.358  8.10000000e+02 
646.322  8.61000000e+02 
646.286  8.59000000e+02 
646.250  8.69000000e+02 
646.214  8.55000000e+02 
646.178  8.28000000e+02 
646.142  8.53000000e+02 
646.106  7.84000000e+02 
646.071  8.36000000e+02 
646.035  8.52000000e+02 
645.999  8.64000000e+02 
645.963  8.75000000e+02 
645.927  9.06000000e+02 
645.891  8.58000000e+02 
645.855  8.70000000e+02 
645.819  8.53000000e+02 
645.783  8.28000000e+02 
645.747  8.46000000e+02 
645.711  8.36000000e+02 
645.676  8.88000000e+02 
645.640  8.59000000e+02 
645.604  9.23000000e+02 
645.568  8.19000000e+02 
645.532  8.10000000e+02 
645.496  8.67000000e+02 
645.460  8.77000000e+02 
645.424  8.47000000e+02 
645.388  8.77000000e+02 
645.352  9.22000000e+02 
645.316  8.71000000e+02 
645.280  8.63000000e+02 
645.245  8.87000000e+02 
645.209  9.42000000e+02 
645.173  8.82000000e+02 
645.137  8.89000000e+02 
645.101  8.76000000e+02 
645.065  8.44000000e+02 
645.029  9.33000000e+02 
644.993  8.88000000e+02 
644.957  8.88000000e+02 
644.921  9.07000000e+02 
644.885  9.13000000e+02 
644.850  9.41000000e+02 
644.814  8.89000000e+02 
644.778  9.30000000e+02 
644.742  8.95000000e+02 
644.706  9.60000000e+02 
644.670  8.65000000e+02 
644.634  9.77000000e+02 
644.598  8.87000000e+02 
644.562  9.31000000e+02 
644.526  9.66000000e+02 
644.490  9.03000000e+02 
644.454  9.05000000e+02 
644.419  9.88000000e+02 
644.383  9.58000000e+02 
644.347  9.82000000e+02 
644.311  1.00400000e+03 
644.275  1.00200000e+03 
644.239  1.00800000e+03 
644.203  1.01700000e+03 
644.167  1.01100000e+03 
644.131  1.00900000e+03 
644.095  9.82000000e+02 
644.059  1.03000000e+03 
644.024  9.59000000e+02 
643.988  1.00700000e+03 
643.952  1.04100000e+03 
643.916  1.02400000e+03 
643.880  9.79000000e+02 
643.844  1.06200000e+03 
643.808  9.71000000e+02 
643.772  1.06900000e+03 
643.736  1.08700000e+03 
643.700  1.03800000e+03 
643.664  1.05400000e+03 
643.628  1.03700000e+03 
643.593  1.04000000e+03 
643.557  1.05900000e+03 
643.521  1.03200000e+03 
643.485  1.11300000e+03 
643.449  1.08100000e+03 
643.413  1.04800000e+03 
643.377  1.05300000e+03 
643.341  1.12200000e+03 
643.305  1.11000000e+03 
643.269  1.13100000e+03 
643.233  1.12500000e+03 
643.198  1.07700000e+03 
643.162  1.08800000e+03 
643.126  1.16800000e+03 
643.090  1.08800000e+03 
643.054  1.03400000e+03 
643.018  1.13000000e+03 
642.982  1.15800000e+03 
642.946  1.15800000e+03 
642.910  1.14600000e+03 
642.874  1.09400000e+03 
642.838  1.17400000e+03 
642.802  1.08800000e+03 
642.767  1.15000000e+03 
642.731  1.19500000e+03 
642.695  1.16400000e+03 
642.659  1.10300000e+03 
642.623  1.14800000e+03 
642.587  1.16100000e+03 
642.551  1.20600000e+03 
642.515  1.13700000e+03 
642.479  1.14300000e+03 
642.443  1.17800000e+03 
642.407  1.11500000e+03 
642.372  1.08900000e+03 
642.336  1.11200000e+03 
642.300  1.15100000e+03 
642.264  1.06100000e+03 
642.228  1.11400000e+03 
642.192  1.07700000e+03 
642.156  1.14200000e+03 
642.120  1.16900000e+03 
642.084  1.14600000e+03 
642.048  1.07200000e+03 
642.012  1.10900000e+03 
641.976  1.07000000e+03 
641.941  1.12100000e+03 
641.905  1.11700000e+03 
641.869  1.12700000e+03 
641.833  1.10000000e+03 
641.797  1.09300000e+03 
641.761  1.08200000e+03 
641.725  1.02000000e+03 
641.689  1.02000000e+03 
641.653  9.90000000e+02 
641.617  1.06600000e+03 
641.581  1.02700000e+03 
641.546  1.02200000e+03 
641.510  1.01800000e+03 
641.474  1.05100000e+03 
641.438  9.86000000e+02 
641.402  1.04100000e+03 
641.366  9.75000000e+02 
641.330  9.71000000e+02 
641.294  9.67000000e+02 
641.258  9.85000000e+02 
641.222  9.81000000e+02 
641.186  9.71000000e+02 
641.150  9.87000000e+02 
641.115  8.93000000e+02 
641.079  9.35000000e+02 
641.043  9.48000000e+02 
641.007  9.04000000e+02 
640.971  9.06000000e+02 
640.935  9.18000000e+02 
640.899  9.38000000e+02 
640.863  8.23000000e+02 
640.827  8.76000000e+02 
640.791  9.05000000e+02 
640.755  8.23000000e+02 
640.720  8.92000000e+02 
640.684  8.76000000e+02 
640.648  8.12000000e+02 
640.612  7.59000000e+02 
640.576  8.09000000e+02 
640.540  7.66000000e+02 
640.504  7.51000000e+02 
640.468  7.60000000e+02 
640.432  7.58000000e+02 
640.396  7.30000000e+02 
640.360  7.90000000e+02 
640.324  7.69000000e+02 
640.289  7.71000000e+02 
640.253  7.31000000e+02 
640.217  7.46000000e+02 
640.181  7.23000000e+02 
640.145  6.94000000e+02 
640.109  6.98000000e+02 
640.073  6.88000000e+02 
640.037  7.21000000e+02 
640.001  7.10000000e+02 
639.965  6.87000000e+02 
639.929  7.02000000e+02 
639.894  6.68000000e+02 
639.858  6.62000000e+02 
639.822  7.39000000e+02 
639.786  6.94000000e+02 
639.750  6.99000000e+02 
639.714  7.00000000e+02 
639.678  7.00000000e+02 
639.642  6.88000000e+02 
639.606  6.75000000e+02 
639.570  7.13000000e+02 
639.534  6.87000000e+02 
639.498  7.18000000e+02 
639.463  6.68000000e+02 
639.427  6.69000000e+02 
639.391  6.60000000e+02 
639.355  6.38000000e+02 
639.319  6.96000000e+02 
639.283  7.46000000e+02 
639.247  6.74000000e+02 
639.211  6.69000000e+02 
639.175  6.72000000e+02 
639.139  6.29000000e+02 
639.103  7.23000000e+02 
639.068  6.74000000e+02 
639.032  6.69000000e+02 
638.996  6.48000000e+02 
638.960  6.54000000e+02 
638.924  6.76000000e+02 
638.888  6.76000000e+02 
638.852  6.77000000e+02 
638.816  6.34000000e+02 
638.780  6.78000000e+02 
638.744  6.63000000e+02 
638.708  6.50000000e+02 
638.672  6.86000000e+02 
638.637  6.64000000e+02 
638.601  6.53000000e+02 
638.565  6.82000000e+02 
638.529  6.28000000e+02 
638.493  6.68000000e+02 
638.457  6.97000000e+02 
638.421  6.89000000e+02 
638.385  6.71000000e+02 
638.349  7.03000000e+02 
638.313  6.95000000e+02 
638.277  7.14000000e+02 
638.242  6.60000000e+02 
638.206  6.60000000e+02 
638.170  6.75000000e+02 
638.134  6.80000000e+02 
638.098  6.64000000e+02 
638.062  6.69000000e+02 
638.026  6.76000000e+02 
637.990  6.49000000e+02 
637.954  6.60000000e+02 
637.918  6.85000000e+02 
637.882  6.79000000e+02 
637.847  6.18000000e+02 
637.811  6.57000000e+02 
637.775  6.64000000e+02 
637.739  6.85000000e+02 
637.703  6.84000000e+02 
637.667  6.73000000e+02 
637.631  6.47000000e+02 
637.595  6.32000000e+02 
637.559  6.35000000e+02 
637.523  6.95000000e+02 
637.487  6.40000000e+02 
637.451  7.02000000e+02 
637.416  6.43000000e+02 
637.380  6.76000000e+02 
637.344  6.01000000e+02 
637.308  6.67000000e+02 
637.272  6.59000000e+02 
637.236  6.57000000e+02 
637.200  6.73000000e+02 
637.164  7.02000000e+02 
637.128  6.61000000e+02 
637.092  6.73000000e+02 
637.056  6.85000000e+02 
637.021  6.97000000e+02 
[ Region 4 Curve ]
BEcenter= 643.000 
BEwidth= -11.959 
Excitation= 1486.600
Time_p_channel= 256.000 
Size= 334
648.979  8.41000000e+02 
648.944  8.57000000e+02 
648.908  8.22000000e+02 
648.872  8.71000000e+02 
648.836  9.17000000e+02 
648.800  8.89000000e+02 
648.764  8.70000000e+02 
648.728  8.46000000e+02 
648.692  8.78000000e+02 
648.656  8.49000000e+02 
648.620  8.85000000e+02 
648.584  8.93000000e+02 
648.549  8.54000000e+02 
648.513  8.74000000e+02 
648.477  8.55000000e+02 
648.441  8.64000000e+02 
648.405  8.34000000e+02 
648.369  8.66000000e+02 
648.333  8.75000000e+02 
648.297  8.51000000e+02 
648.261  8.93000000e+02 
648.225  8.42000000e+02 
648.189  8.75000000e+02 
648.153  8.77000000e+02 
648.118  8.60000000e+02 
648.082  8.71000000e+02 
648.046  8.88000000e+02 
648.010  8.57000000e+02 
647.974  8.46000000e+02 
647.938  8.85000000e+02 
647.902  9.55000000e+02 
647.866  8.27000000e+02 
647.830  8.52000000e+02 
647.794  8.56000000e+02 
647.758  8.59000000e+02 
647.723  8.81000000e+02 
647.687  8.27000000e+02 
647.651  8.16000000e+02 
647.615  8.19000000e+02 
647.579  8.38000000e+02 
647.543  8.66000000e+02 
647.507  8.61000000e+02 
647.471  8.64000000e+02 
647.435  9.01000000e+02 
647.399  8.40000000e+02 
647.363  9.04000000e+02 
647.328  8.90000000e+02 
647.292  9.00000000e+02 
647.256  8.43000000e+02 
647.220  8.45000000e+02 
647.184  9.11000000e+02 
647.148  8.78000000e+02 
647.112  8.74000000e+02 
647.076  8.70000000e+02 
647.040  9.09000000e+02 
647.004  9.24000000e+02 
646.968  9.20000000e+02 
646.932  8.27000000e+02 
646.897  9.22000000e+02 
646.861  8.20000000e+02 
646.825  8.78000000e+02 
646.789  9.11000000e+02 
646.753  8.56000000e+02 
646.717  8.96000000e+02 
646.681  8.80000000e+02 
646.645  9.23000000e+02 
646.609  8.70000000e+02 
646.573  8.57000000e+02 
646.537  8.66000000e+02 
646.502  8.64000000e+02 
646.466  8.97000000e+02 
646.430  8.97000000e+02 
646.394  8.98000000e+02 
646.358  9.04000000e+02 
646.322  8.92000000e+02 
646.286  9.36000000e+02 
646.250  8.98000000e+02 
646.214  9.23000000e+02 
646.178  9.12000000e+02 
646.142  9.27000000e+02 
646.106  8.95000000e+02 
646.071  9.27000000e+02 
646.035  9.26000000e+02 
645.999  8.25000000e+02 
645.963  9.73000000e+02 
645.927  8.94000000e+02 
645.891  8.70000000e+02 
645.855  9.75000000e+02 
645.819  9.38000000e+02 
645.783  8.95000000e+02 
645.747  8.81000000e+02 
645.711  9.28000000e+02 
645.676  9.12000000e+02 
645.640  8.94000000e+02 
645.604  9.29000000e+02 
645.568  9.63000000e+02 
645.532  9.39000000e+02 
645.496  9.11000000e+02 
645.460  9.35000000e+02 
645.424  9.40000000e+02 
645.388  9.40000000e+02 
645.352  9.31000000e+02 
645.316  9.49000000e+02 
645.280  9.02000000e+02 
645.245  9.17000000e+02 
645.209  9.49000000e+02 
645.173  9.86000000e+02 
645.137  9.21000000e+02 
645.101  9.36000000e+02 
645.065  9.05000000e+02 
645.029  9.09000000e+02 
644.993  9.65000000e+02 
644.957  9.69000000e+02 
644.921  9.45000000e+02 
644.885  9.61000000e+02 
644.850  9.89000000e+02 
644.814  9.66000000e+02 
644.778  9.67000000e+02 
644.742  1.00800000e+03 
644.706  9.35000000e+02 
644.670  9.19000000e+02 
644.634  1.02400000e+03 
644.598  9.95000000e+02 
644.562  9.95000000e+02 
644.526  1.00000000e+03 
644.490  1.04400000e+03 
644.454  1.03600000e+03 
644.419  1.03700000e+03 
644.383  1.01200000e+03 
644.347  9.71000000e+02 
644.311  9.87000000e+02 
644.275  1.00600000e+03 
644.239  1.00700000e+03 
644.203  1.07200000e+03 
644.167  1.05700000e+03 
644.131  1.01800000e+03 
644.095  1.06300000e+03 
644.059  1.08400000e+03 
644.024  1.04300000e+03 
643.988  1.11100000e+03 
643.952  1.07500000e+03 
643.916  1.06500000e+03 
643.880  1.08700000e+03 
643.844  1.09600000e+03 
643.808  1.10400000e+03 
643.772  1.10100000e+03 
643.736  1.11500000e+03 
643.700  1.11600000e+03 
643.664  1.14000000e+03 
643.628  1.16000000e+03 
643.593  1.14600000e+03 
643.557  1.09900000e+03 
643.521  1.18800000e+03 
643.485  1.10900000e+03 
643.449  1.06000000e+03 
643.413  1.16900000e+03 
643.377  1.17900000e+03 
643.341  1.10600000e+03 
643.305  1.23100000e+03 
643.269  1.15600000e+03 
643.233  1.21100000e+03 
643.198  1.14400000e+03 
643.162  1.16900000e+03 
643.126  1.19400000e+03 
643.090  1.17900000e+03 
643.054  1.15300000e+03 
643.018  1.19100000e+03 
642.982  1.24400000e+03 
642.946  1.24500000e+03 
642.910  1.15400000e+03 
642.874  1.18100000e+03 
642.838  1.18600000e+03 
642.802  1.17900000e+03 
642.767  1.15900000e+03 
642.731  1.23800000e+03 
642.695  1.19200000e+03 
642.659  1.18800000e+03 
642.623  1.19800000e+03 
642.587  1.18800000e+03 
642.551  1.24800000e+03 
642.515  1.20200000e+03 
642.479  1.16300000e+03 
642.443  1.16000000e+03 
642.407  1.22000000e+03 
642.372  1.15700000e+03 
642.336  1.22000000e+03 
642.300  1.17400000e+03 
642.264  1.17700000e+03 
642.228  1.22400000e+03 
642.192  1.17200000e+03 
642.156  1.19300000e+03 
642.120  1.15400000e+03 
642.084  1.18400000e+03 
642.048  1.16600000e+03 
642.012  1.19900000e+03 
641.976  1.20000000e+03 
641.941  1.20400000e+03 
641.905  1.14500000e+03 
641.869  1.12400000e+03 
641.833  1.16100000e+03 
641.797  1.14100000e+03 
641.761  1.13500000e+03 
641.725  1.10800000e+03 
641.689  1.12800000e+03 
641.653  1.05500000e+03 
641.617  1.05500000e+03 
641.581  1.07500000e+03 
641.546  1.14300000e+03 
641.510  1.11000000e+03 
641.474  1.07100000e+03 
641.438  1.07700000e+03 
641.402  1.07900000e+03 
641.366  1.06800000e+03 
641.330  1.12000000e+03 
641.294  1.10200000e+03 
641.258  1.02600000e+03 
641.222  9.82000000e+02 
641.186  1.01200000e+03 
641.150  1.03100000e+03 
641.115  9.93000000e+02 
641.079  9.83000000e+02 
641.043  9.45000000e+02 
641.007  9.80000000e+02 
640.971  9.66000000e+02 
640.935  9.34000000e+02 
640.899  9.52000000e+02 
640.863  9.28000000e+02 
640.827  9.02000000e+02 
640.791  8.82000000e+02 
640.755  8.75000000e+02 
640.720  8.15000000e+02 
640.684  8.47000000e+02 
640.648  8.96000000e+02 
640.612  8.74000000e+02 
640.576  8.28000000e+02 
640.540  8.48000000e+02 
640.504  8.23000000e+02 
640.468  8.47000000e+02 
640.432  7.99000000e+02 
640.396  7.76000000e+02 
640.360  7.74000000e+02 
640.324  7.59000000e+02 
640.289  8.24000000e+02 
640.253  7.59000000e+02 
640.217  7.59000000e+02 
640.181  7.72000000e+02 
640.145  7.57000000e+02 
640.109  7.26000000e+02 
640.073  7.41000000e+02 
640.037  6.58000000e+02 
640.001  7.01000000e+02 
639.965  7.00000000e+02 
639.929  8.05000000e+02 
639.894  7.38000000e+02 
639.858  7.53000000e+02 
639.822  7.43000000e+02 
639.786  7.01000000e+02 
639.750  7.19000000e+02 
639.714  7.40000000e+02 
639.678  7.67000000e+02 
639.642  7.08000000e+02 
639.606  7.41000000e+02 
639.570  6.81000000e+02 
639.534  7.30000000e+02 
639.498  6.96000000e+02 
639.463  7.28000000e+02 
639.427  7.27000000e+02 
639.391  6.67000000e+02 
639.355  6.60000000e+02 
639.319  7.00000000e+02 
639.283  7.23000000e+02 
639.247  6.23000000e+02 
639.211  7.29000000e+02 
639.175  6.63000000e+02 
639.139  6.22000000e+02 
639.103  7.06000000e+02 
639.068  7.27000000e+02 
639.032  7.11000000e+02 
638.996  7.22000000e+02 
638.960  7.10000000e+02 
638.924  6.82000000e+02 
638.888  7.18000000e+02 
638.852  6.65000000e+02 
638.816  6.55000000e+02 
638.780  6.93000000e+02 
638.744  6.78000000e+02 
638.708  6.23000000e+02 
638.672  6.95000000e+02 
638.637  7.21000000e+02 
638.601  6.63000000e+02 
638.565  6.69000000e+02 
638.529  6.76000000e+02 
638.493  6.70000000e+02 
638.457  6.91000000e+02 
638.421  6.73000000e+02 
638.385  6.99000000e+02 
638.349  6.87000000e+02 
638.313  6.84000000e+02 
638.277  6.82000000e+02 
638.242  6.72000000e+02 
638.206  7.22000000e+02 
638.170  6.43000000e+02 
638.134  6.94000000e+02 
638.098  6.51000000e+02 
638.062  6.56000000e+02 
638.026  7.35000000e+02 
637.990  6.92000000e+02 
637.954  6.64000000e+02 
637.918  7.02000000e+02 
637.882  6.89000000e+02 
637.847  7.03000000e+02 
637.811  7.29000000e+02 
637.775  6.84000000e+02 
637.739  6.90000000e+02 
637.703  7.10000000e+02 
637.667  6.66000000e+02 
637.631  6.63000000e+02 
637.595  6.45000000e+02 
637.559  6.30000000e+02 
637.523  6.93000000e+02 
637.487  6.81000000e+02 
637.451  7.23000000e+02 
637.416  7.02000000e+02 
637.380  6.98000000e+02 
637.344  7.13000000e+02 
637.308  6.95000000e+02 
637.272  6.91000000e+02 
637.236  6.89000000e+02 
637.200  6.46000000e+02 
637.164  7.18000000e+02 
637.128  6.66000000e+02 
637.092  6.55000000e+02 
637.056  6.99000000e+02 
637.021  6.65000000e+02 
[ Region 5 Curve ]
BEcenter= 643.000 
BEwidth= -11.959 
Excitation= 1486.600
Time_p_channel= 256.000 
Size= 334
648.979  9.86000000e+02 
648.944  9.91000000e+02 
648.908  9.27000000e+02 
648.872  9.31000000e+02 
648.836  9.22000000e+02 
648.800  9.92000000e+02 
648.764  9.27000000e+02 
648.728  9.21000000e+02 
648.692  9.59000000e+02 
648.656  9.71000000e+02 
648.620  9.40000000e+02 
648.584  9.06000000e+02 
648.549  9.69000000e+02 
648.513  8.69000000e+02 
648.477  9.15000000e+02 
648.441  9.44000000e+02 
648.405  1.00400000e+03 
648.369  9.07000000e+02 
648.333  9.32000000e+02 
648.297  9.28000000e+02 
648.261  9.49000000e+02 
648.225  9.72000000e+02 
648.189  9.36000000e+02 
648.153  9.54000000e+02 
648.118  8.97000000e+02 
648.082  9.35000000e+02 
648.046  9.17000000e+02 
648.010  9.19000000e+02 
647.974  9.69000000e+02 
647.938  9.18000000e+02 
647.902  9.84000000e+02 
647.866  9.78000000e+02 
647.830  9.54000000e+02 
647.794  9.18000000e+02 
647.758  9.74000000e+02 
647.723  9.90000000e+02 
647.687  8.70000000e+02 
647.651  9.35000000e+02 
647.615  9.93000000e+02 
647.579  9.00000000e+02 
647.543  9.72000000e+02 
647.507  9.70000000e+02 
647.471  8.89000000e+02 
647.435  9.68000000e+02 
647.399  9.12000000e+02 
647.363  9.24000000e+02 
647.328  1.00700000e+03 
647.292  9.60000000e+02 
647.256  8.82000000e+02 
647.220  9.21000000e+02 
647.184  9.96000000e+02 
647.148  8.90000000e+02 
647.112  9.71000000e+02 
647.076  8.66000000e+02 
647.040  9.30000000e+02 
647.004  9.09000000e+02 
646.968  9.60000000e+02 
646.932  9.86000000e+02 
646.897  9.19000000e+02 
646.861  9.38000000e+02 
646.825  9.48000000e+02 
646.789  1.00400000e+03 
646.753  9.02000000e+02 
646.717  9.09000000e+02 
646.681  9.68000000e+02 
646.645  9.65000000e+02 
646.609  8.50000000e+02 
646.573  9.00000000e+02 
646.537  9.63000000e+02 
646.502  9.39000000e+02 
646.466  9.16000000e+02 
646.430  9.49000000e+02 
646.394  9.07000000e+02 
646.358  1.00800000e+03 
646.322  9.62000000e+02 
646.286  9.26000000e+02 
646.250  9.30000000e+02 
646.214  9.41000000e+02 
646.178  9.86000000e+02 
646.142  9.94000000e+02 
646.106  9.28000000e+02 
646.071  9.42000000e+02 
646.035  9.80000000e+02 
645.999  9.71000000e+02 
645.963  9.10000000e+02 
645.927  9.73000000e+02 
645.891  1.00700000e+03 
645.855  9.38000000e+02 
645.819  1.02200000e+03 
645.783  9.46000000e+02 
645.747  9.76000000e+02 
645.711  9.76000000e+02 
645.676  9.72000000e+02 
645.640  1.01100000e+03 
645.604  9.47000000e+02 
645.568  9.52000000e+02 
645.532  1.02900000e+03 
645.496  9.36000000e+02 
645.460  9.98000000e+02 
645.424  1.01000000e+03 
645.388  9.45000000e+02 
645.352  1.00200000e+03 
645.316  1.01100000e+03 
645.280  9.96000000e+02 
645.245  9.91000000e+02 
645.209  1.05000000e+03 
645.173  1.01700000e+03 
645.137  1.01900000e+03 
645.101  1.02400000e+03 
645.065  1.04200000e+03 
645.029  9.82000000e+02 
644.993  1.06800000e+03 
644.957  9.77000000e+02 
644.921  1.00400000e+03 
644.885  1.02400000e+03 
644.850  1.09000000e+03 
644.814  1.10100000e+03 
644.778  1.04800000e+03 
644.742  1.06700000e+03 
644.706  1.09700000e+03 
644.670  1.03200000e+03 
644.634  1.04300000e+03 
644.598  1.07200000e+03 
644.562  1.05800000e+03 
644.526  1.11100000e+03 
644.490  1.05600000e+03 
644.454  1.09900000e+03 
644.419  1.07600000e+03 
644.383  1.09600000e+03 
644.347  1.07400000e+03 
644.311  1.06000000e+03 
644.275  1.12400000e+03 
644.239  1.11000000e+03 
644.203  1.11500000e+03 
644.167  1.11300000e+03 
644.131  1.15100000e+03 
644.095  1.18200000e+03 
644.059  1.17800000e+03 
644.024  1.13600000e+03 
643.988  1.15100000e+03 
643.952  1.18000000e+03 
643.916  1.22500000e+03 
643.880  1.18900000e+03 
643.844  1.22600000e+03 
643.808  1.19100000e+03 
643.772  1.14200000e+03 
643.736  1.21200000e+03 
643.700  1.17100000e+03 
643.664  1.24600000e+03 
643.628  1.26600000e+03 
643.593  1.21400000e+03 
643.557  1.25900000e+03 
643.521  1.25900000e+03 
643.485  1.22600000e+03 
643.449  1.22300000e+03 
643.413  1.25800000e+03 
643.377  1.20200000e+03 
643.341  1.27000000e+03 
643.305  1.24900000e+03 
643.269  1.29400000e+03 
643.233  1.27100000e+03 
643.198  1.22800000e+03 
643.162  1.33000000e+03 
643.126  1.29200000e+03 
643.090  1.22400000e+03 
643.054  1.24700000e+03 
643.018  1.24400000e+03 
642.982  1.25300000e+03 
642.946  1.24700000e+03 
642.910  1.31900000e+03 
642.874  1.35000000e+03 
642.838  1.27500000e+03 
642.802  1.33200000e+03 
642.767  1.29700000e+03 
642.731  1.29400000e+03 
642.695  1.25200000e+03 
642.659  1.28000000e+03 
642.623  1.32000000e+03 
642.587  1.28700000e+03 
642.551  1.31700000e+03 
642.515  1.30700000e+03 
642.479  1.33700000e+03 
642.443  1.30700000e+03 
642.407  1.31600000e+03 
642.372  1.32700000e+03 
642.336  1.29600000e+03 
642.300  1.25800000e+03 
642.264  1.34400000e+03 
642.228  1.28100000e+03 
642.192  1.31500000e+03 
642.156  1.27900000e+03 
642.120  1.26500000e+03 
642.084  1.30700000e+03 
642.048  1.30700000e+03 
642.012  1.31400000e+03 
641.976  1.29700000e+03 
641.941  1.24800000e+03 
641.905  1.19100000e+03 
641.869  1.25600000e+03 
641.833  1.25900000e+03 
641.797  1.22900000e+03 
641.761  1.18800000e+03 
641.725  1.19900000e+03 
641.689  1.19800000e+03 
641.653  1.22200000e+03 
641.617  1.21700000e+03 
641.581  1.16800000e+03 
641.546  1.17000000e+03 
641.510  1.13200000e+03 
641.474  1.14300000e+03 
641.438  1.12200000e+03 
641.402  1.17200000e+03 
641.366  1.20700000e+03 
641.330  1.16400000e+03 
641.294  1.07600000e+03 
641.258  1.19200000e+03 
641.222  1.08000000e+03 
641.186  1.05500000e+03 
641.150  1.08600000e+03 
641.115  1.10000000e+03 
641.079  1.07300000e+03 
641.043  1.03400000e+03 
641.007  9.90000000e+02 
640.971  1.02700000e+03 
640.935  9.92000000e+02 
640.899  1.08300000e+03 
640.863  9.99000000e+02 
640.827  9.41000000e+02 
640.791  9.14000000e+02 
640.755  9.77000000e+02 
640.720  9.49000000e+02 
640.684  8.75000000e+02 
640.648  9.16000000e+02 
640.612  9.08000000e+02 
640.576  9.40000000e+02 
640.540  8.95000000e+02 
640.504  9.27000000e+02 
640.468  8.51000000e+02 
640.432  8.40000000e+02 
640.396  8.00000000e+02 
640.360  8.11000000e+02 
640.324  8.47000000e+02 
640.289  8.20000000e+02 
640.253  7.98000000e+02 
640.217  7.99000000e+02 
640.181  8.16000000e+02 
640.145  7.80000000e+02 
640.109  7.23000000e+02 
640.073  7.45000000e+02 
640.037  7.67000000e+02 
640.001  8.19000000e+02 
639.965  8.02000000e+02 
639.929  7.57000000e+02 
639.894  7.66000000e+02 
639.858  7.30000000e+02 
639.822  7.27000000e+02 
639.786  7.63000000e+02 
639.750  7.68000000e+02 
639.714  7.73000000e+02 
639.678  7.38000000e+02 
639.642  7.54000000e+02 
639.606  7.52000000e+02 
639.570  7.48000000e+02 
639.534  7.37000000e+02 
639.498  7.48000000e+02 
639.463  7.86000000e+02 
639.427  7.20000000e+02 
639.391  7.41000000e+02 
639.355  7.28000000e+02 
639.319  7.16000000e+02 
639.283  7.35000000e+02 
639.247  7.45000000e+02 
639.211  7.35000000e+02 
639.175  7.51000000e+02 
639.139  7.08000000e+02 
639.103  7.21000000e+02 
639.068  7.48000000e+02 
639.032  7.23000000e+02 
638.996  7.73000000e+02 
638.960  7.60000000e+02 
638.924  6.98000000e+02 
638.888  7.30000000e+02 
638.852  7.61000000e+02 
638.816  7.65000000e+02 
638.780  7.66000000e+02 
638.744  7.64000000e+02 
638.708  7.55000000e+02 
638.672  7.16000000e+02 
638.637  7.25000000e+02 
638.601  7.49000000e+02 
638.565  7.18000000e+02 
638.529  7.77000000e+02 
638.493  7.15000000e+02 
638.457  7.54000000e+02 
638.421  7.36000000e+02 
638.385  7.30000000e+02 
638.349  7.27000000e+02 
638.313  7.38000000e+02 
638.277  7.26000000e+02 
638.242  7.81000000e+02 
638.206  8.15000000e+02 
638.170  7.26000000e+02 
638.134  8.05000000e+02 
638.098  7.57000000e+02 
638.062  7.45000000e+02 
638.026  7.71000000e+02 
637.990  7.49000000e+02 
637.954  7.65000000e+02 
637.918  6.94000000e+02 
637.882  7.44000000e+02 
637.847  7.20000000e+02 
637.811  7.67000000e+02 
637.775  7.90000000e+02 
637.739  7.56000000e+02 
637.703  7.77000000e+02 
637.667  7.16000000e+02 
637.631  7.21000000e+02 
637.595  7.15000000e+02 
637.559  7.22000000e+02 
637.523  7.32000000e+02 
637.487  7.64000000e+02 
637.451  7.08000000e+02 
637.416  7.45000000e+02 
637.380  7.19000000e+02 
637.344  7.11000000e+02 
637.308  7.26000000e+02 
637.272  7.32000000e+02 
637.236  7.51000000e+02 
637.200  7.10000000e+02 
637.164  7.49000000e+02 
637.128  7.49000000e+02 
637.092  7.66000000e+02 
637.056  6.55000000e+02 
637.021  7.43000000e+02 
[ Region 6 Curve ]
BEcenter= 643.000 
BEwidth= -11.959 
Excitation= 1486.600
Time_p_channel= 256.000 
Size= 334
648.979  9.83000000e+02 
648.944  1.00300000e+03 
648.908  9.11000000e+02 
648.872  9.95000000e+02 
648.836  9.47000000e+02 
648.800  9.99000000e+02 
648.764  9.71000000e+02 
648.728  9.95000000e+02 
648.692  9.99000000e+02 
648.656  9.75000000e+02 
648.620  1.01100000e+03 
648.584  1.00500000e+03 
648.549  1.01000000e+03 
648.513  9.92000000e+02 
648.477  9.55000000e+02 
648.441  1.07200000e+03 
648.405  9.74000000e+02 
648.369  1.06200000e+03 
648.333  9.82000000e+02 
648.297  9.47000000e+02 
648.261  1.02400000e+03 
648.225  9.48000000e+02 
648.189  9.41000000e+02 
648.153  1.01800000e+03 
648.118  9.92000000e+02 
648.082  1.02100000e+03 
648.046  9.86000000e+02 
648.010  1.00200000e+03 
647.974  1.02200000e+03 
647.938  9.08000000e+02 
647.902  9.95000000e+02 
647.866  1.04300000e+03 
647.830  9.77000000e+02 
647.794  1.00700000e+03 
647.758  1.02200000e+03 
647.723  1.02200000e+03 
647.687  1.02400000e+03 
647.651  9.39000000e+02 
647.615  9.92000000e+02 
647.579  9.34000000e+02 
647.543  8.95000000e+02 
647.507  1.04300000e+03 
647.471  9.98000000e+02 
647.435  1.00500000e+03 
647.399  9.61000000e+02 
647.363  1.01100000e+03 
647.328  9.42000000e+02 
647.292  1.02900000e+03 
647.256  9.97000000e+02 
647.220  9.85000000e+02 
647.184  9.81000000e+02 
647.148  9.43000000e+02 
647.112  1.01500000e+03 
647.076  1.00300000e+03 
647.040  9.56000000e+02 
647.004  1.01900000e+03 
646.968  1.01700000e+03 
646.932  1.00200000e+03 
646.897  1.01500000e+03 
646.861  9.80000000e+02 
646.825  1.03400000e+03 
646.789  9.19000000e+02 
646.753  1.06400000e+03 
646.717  9.85000000e+02 
646.681  9.77000000e+02 
646.645  1.04900000e+03 
646.609  9.44000000e+02 
646.573  9.74000000e+02 
646.537  1.03500000e+03 
646.502  1.04400000e+03 
646.466  1.03700000e+03 
646.430  1.00000000e+03 
646.394  1.01200000e+03 
646.358  1.02000000e+03 
646.322  1.01000000e+03 
646.286  1.02500000e+03 
646.250  1.01300000e+03 
646.214  1.01900000e+03 
646.178  9.75000000e+02 
646.142  1.02700000e+03 
646.106  1.01000000e+03 
646.071  1.01700000e+03 
646.035  1.05600000e+03 
645.999  1.02700000e+03 
645.963  1.00700000e+03 
645.927  1.01500000e+03 
645.891  1.05000000e+03 
645.855  1.04700000e+03 
645.819  1.02600000e+03 
645.783  9.95000000e+02 
645.747  1.03000000e+03 
645.711  1.03400000e+03 
645.676  1.04500000e+03 
645.640  1.04400000e+03 
645.604  1.06800000e+03 
645.568  1.02800000e+03 
645.532  1.01800000e+03 
645.496  1.06500000e+03 
645.460  1.06300000e+03 
645.424  1.00100000e+03 
645.388  1.05300000e+03 
645.352  1.03900000e+03 
645.316  1.02400000e+03 
645.280  1.08700000e+03 
645.245  1.08400000e+03 
645.209  1.05600000e+03 
645.173  1.06000000e+03 
645.137  1.08300000e+03 
645.101  1.10700000e+03 
645.065  1.12400000e+03 
645.029  1.09200000e+03 
644.993  1.05900000e+03 
644.957  1.09100000e+03 
644.921  1.15900000e+03 
644.885  1.05200000e+03 
644.850  1.13500000e+03 
644.814  1.12200000e+03 
644.778  1.11600000e+03 
644.742  1.10100000e+03 
644.706  1.12200000e+03 
644.670  1.08700000e+03 
644.634  1.09900000e+03 
644.598  1.14600000e+03 
644.562  1.13800000e+03 
644.526  1.13800000e+03 
644.490  1.16500000e+03 
644.454  1.13400000e+03 
644.419  1.12100000e+03 
644.383  1.16000000e+03 
644.347  1.20200000e+03 
644.311  1.14000000e+03 
644.275  1.14500000e+03 
644.239  1.22500000e+03 
644.203  1.20000000e+03 
644.167  1.19600000e+03 
644.131  1.20200000e+03 
644.095  1.19300000e+03 
644.059  1.26100000e+03 
644.024  1.19300000e+03 
643.988  1.21700000e+03 
643.952  1.24800000e+03 
643.916  1.24000000e+03 
643.880  1.19600000e+03 
643.844  1.28500000e+03 
643.808  1.30900000e+03 
643.772  1.20800000e+03 
643.736  1.30600000e+03 
643.700  1.31300000e+03 
643.664  1.28200000e+03 
643.628  1.25800000e+03 
643.593  1.27700000e+03 
643.557  1.31800000e+03 
643.521  1.28200000e+03 
643.485  1.32500000e+03 
643.449  1.29200000e+03 
643.413  1.31000000e+03 
643.377  1.30000000e+03 
643.341  1.27900000e+03 
643.305  1.31400000e+03 
643.269  1.31400000e+03 
643.233  1.30800000e+03 
643.198  1.38000000e+03 
643.162  1.33900000e+03 
643.126  1.34700000e+03 
643.090  1.39200000e+03 
643.054  1.37500000e+03 
643.018  1.35000000e+03 
642.982  1.38900000e+03 
642.946  1.38000000e+03 
642.910  1.40800000e+03 
642.874  1.38200000e+03 
642.838  1.33200000e+03 
642.802  1.33200000e+03 
642.767  1.45300000e+03 
642.731  1.37500000e+03 
642.695  1.38800000e+03 
642.659  1.34400000e+03 
642.623  1.42500000e+03 
642.587  1.35300000e+03 
642.551  1.31700000e+03 
642.515  1.46400000e+03 
642.479  1.39300000e+03 
642.443  1.44600000e+03 
642.407  1.42500000e+03 
642.372  1.43600000e+03 
642.336  1.41300000e+03 
642.300  1.38900000e+03 
642.264  1.37200000e+03 
642.228  1.42300000e+03 
642.192  1.44600000e+03 
642.156  1.34700000e+03 
642.120  1.40400000e+03 
642.084  1.40400000e+03 
642.048  1.40400000e+03 
642.012  1.33300000e+03 
641.976  1.32000000e+03 
641.941  1.41100000e+03 
641.905  1.37000000e+03 
641.869  1.36300000e+03 
641.833  1.32000000e+03 
641.797  1.27900000e+03 
641.761  1.31100000e+03 
641.725  1.25400000e+03 
641.689  1.25500000e+03 
641.653  1.23200000e+03 
641.617  1.30700000e+03 
641.581  1.33900000e+03 
641.546  1.28900000e+03 
641.510  1.28700000e+03 
641.474  1.20000000e+03 
641.438  1.24100000e+03 
641.402  1.26800000e+03 
641.366  1.22500000e+03 
641.330  1.18700000e+03 
641.294  1.26600000e+03 
641.258  1.19700000e+03 
641.222  1.14400000e+03 
641.186  1.12700000e+03 
641.150  1.14000000e+03 
641.115  1.16500000e+03 
641.079  1.13500000e+03 
641.043  1.12800000e+03 
641.007  1.07800000e+03 
640.971  1.10300000e+03 
640.935  9.62000000e+02 
640.899  1.01500000e+03 
640.863  1.09000000e+03 
640.827  1.08300000e+03 
640.791  1.00800000e+03 
640.755  1.04400000e+03 
640.720  1.04100000e+03 
640.684  9.99000000e+02 
640.648  9.49000000e+02 
640.612  9.95000000e+02 
640.576  9.10000000e+02 
640.540  9.23000000e+02 
640.504  9.03000000e+02 
640.468  9.66000000e+02 
640.432  9.89000000e+02 
640.396  8.90000000e+02 
640.360  8.57000000e+02 
640.324  8.36000000e+02 
640.289  9.05000000e+02 
640.253  8.82000000e+02 
640.217  8.63000000e+02 
640.181  8.35000000e+02 
640.145  8.79000000e+02 
640.109  8.86000000e+02 
640.073  8.33000000e+02 
640.037  8.55000000e+02 
640.001  7.93000000e+02 
639.965  7.85000000e+02 
639.929  7.98000000e+02 
639.894  7.50000000e+02 
639.858  7.75000000e+02 
639.822  8.34000000e+02 
639.786  8.28000000e+02 
639.750  7.64000000e+02 
639.714  8.63000000e+02 
639.678  7.83000000e+02 
639.642  8.28000000e+02 
639.606  8.06000000e+02 
639.570  7.63000000e+02 
639.534  8.24000000e+02 
639.498  7.88000000e+02 
639.463  7.65000000e+02 
639.427  8.62000000e+02 
639.391  7.40000000e+02 
639.355  7.76000000e+02 
639.319  7.32000000e+02 
639.283  8.03000000e+02 
639.247  7.69000000e+02 
639.211  7.72000000e+02 
639.175  7.28000000e+02 
639.139  7.63000000e+02 
639.103  7.82000000e+02 
639.068  7.98000000e+02 
639.032  7.41000000e+02 
638.996  7.42000000e+02 
638.960  7.44000000e+02 
638.924  7.84000000e+02 
638.888  7.37000000e+02 
638.852  7.83000000e+02 
638.816  8.31000000e+02 
638.780  7.59000000e+02 
638.744  7.62000000e+02 
638.708  7.39000000e+02 
638.672  7.94000000e+02 
638.637  7.44000000e+02 
638.601  8.01000000e+02 
638.565  8.16000000e+02 
638.529  7.76000000e+02 
638.493  8.08000000e+02 
638.457  8.11000000e+02 
638.421  7.09000000e+02 
638.385  7.48000000e+02 
638.349  7.87000000e+02 
638.313  7.82000000e+02 
638.277  7.47000000e+02 
638.242  7.99000000e+02 
638.206  7.48000000e+02 
638.170  7.07000000e+02 
638.134  7.33000000e+02 
638.098  7.71000000e+02 
638.062  7.80000000e+02 
638.026  7.42000000e+02 
637.990  7.34000000e+02 
637.954  7.52000000e+02 
637.918  7.85000000e+02 
637.882  7.67000000e+02 
637.847  7.85000000e+02 
637.811  7.64000000e+02 
637.775  8.03000000e+02 
637.739  7.82000000e+02 
637.703  7.83000000e+02 
637.667  7.63000000e+02 
637.631  7.96000000e+02 
637.595  7.48000000e+02 
637.559  7.49000000e+02 
637.523  7.34000000e+02 
637.487  7.52000000e+02 
637.451  7.35000000e+02 
637.416  7.61000000e+02 
637.380  7.28000000e+02 
637.344  8.25000000e+02 
637.308  7.80000000e+02 
637.272  7.66000000e+02 
637.236  7.61000000e+02 
637.200  7.84000000e+02 
637.164  7.99000000e+02 
637.128  7.54000000e+02 
637.092  7.34000000e+02 
637.056  7.83000000e+02 
637.021  7.78000000e+02 
[ Region 7 Curve ]
BEcenter= 643.000 
BEwidth= -11.959 
Excitation= 1486.600
Time_p_channel= 256.000 
Size= 334
648.979  1.08400000e+03 
648.944  1.04400000e+03 
648.908  9.43000000e+02 
648.872  1.03800000e+03 
648.836  1.06800000e+03 
648.800  1.05800000e+03 
648.764  1.06800000e+03 
648.728  1.03000000e+03 
648.692  9.96000000e+02 
648.656  1.01800000e+03 
648.620  1.03600000e+03 
648.584  1.02200000e+03 
648.549  1.05000000e+03 
648.513  1.07200000e+03 
648.477  1.04400000e+03 
648.441  1.04400000e+03 
648.405  1.00800000e+03 
648.369  1.03500000e+03 
648.333  1.03200000e+03 
648.297  1.02600000e+03 
648.261  1.04700000e+03 
648.225  9.57000000e+02 
648.189  1.03100000e+03 
648.153  1.02300000e+03 
648.118  1.04600000e+03 
648.082  1.01600000e+03 
648.046  1.02300000e+03 
648.010  1.07600000e+03 
647.974  1.10700000e+03 
647.938  1.05700000e+03 
647.902  1.07000000e+03 
647.866  1.05100000e+03 
647.830  1.02800000e+03 
647.794  1.06900000e+03 
647.758  1.02200000e+03 
647.723  1.00600000e+03 
647.687  9.75000000e+02 
647.651  1.05000000e+03 
647.615  1.06800000e+03 
647.579  1.02700000e+03 
647.543  1.04300000e+03 
647.507  1.03600000e+03 
647.471  1.06100000e+03 
647.435  1.03400000e+03 
647.399  1.04300000e+03 
647.363  9.79000000e+02 
647.328  1.08200000e+03 
647.292  1.04500000e+03 
647.256  1.05700000e+03 
647.220  1.04600000e+03 
647.184  1.08100000e+03 
647.148  1.05000000e+03 
647.112  1.01800000e+03 
647.076  1.04800000e+03 
647.040  9.88000000e+02 
647.004  1.01700000e+03 
646.968  1.04700000e+03 
646.932  1.08900000e+03 
646.897  1.05200000e+03 
646.861  1.05600000e+03 
646.825  1.06200000e+03 
646.789  1.04500000e+03 
646.753  1.06700000e+03 
646.717  1.06400000e+03 
646.681  1.05000000e+03 
646.645  1.08700000e+03 
646.609  1.06200000e+03 
646.573  1.09200000e+03 
646.537  1.02100000e+03 
646.502  1.03400000e+03 
646.466  1.04300000e+03 
646.430  1.11800000e+03 
646.394  1.03200000e+03 
646.358  9.98000000e+02 
646.322  1.05800000e+03 
646.286  1.10900000e+03 
646.250  1.03200000e+03 
646.214  1.07800000e+03 
646.178  1.01100000e+03 
646.142  1.11200000e+03 
646.106  1.13000000e+03 
646.071  1.12100000e+03 
646.035  1.05900000e+03 
645.999  1.11500000e+03 
645.963  1.04000000e+03 
645.927  1.08400000e+03 
645.891  1.10500000e+03 
645.855  1.05400000e+03 
645.819  1.05400000e+03 
645.783  1.12300000e+03 
645.747  1.05100000e+03 
645.711  1.14000000e+03 
645.676  1.06500000e+03 
645.640  1.09000000e+03 
645.604  1.06000000e+03 
645.568  1.13000000e+03 
645.532  1.07900000e+03 
645.496  1.07600000e+03 
645.460  1.11800000e+03 
645.424  1.08100000e+03 
645.388  1.06800000e+03 
645.352  1.13200000e+03 
645.316  1.06900000e+03 
645.280  1.08100000e+03 
645.245  1.08500000e+03 
645.209  1.09500000e+03 
645.173  1.06100000e+03 
645.137  1.15900000e+03 
645.101  1.22100000e+03 
645.065  1.14500000e+03 
645.029  1.16400000e+03 
644.993  1.18200000e+03 
644.957  1.13800000e+03 
644.921  1.11200000e+03 
644.885  1.19400000e+03 
644.850  1.15900000e+03 
644.814  1.16800000e+03 
644.778  1.20700000e+03 
644.742  1.18300000e+03 
644.706  1.10700000e+03 
644.670  1.18100000e+03 
644.634  1.21100000e+03 
644.598  1.24700000e+03 
644.562  1.20200000e+03 
644.526  1.19100000e+03 
644.490  1.20000000e+03 
644.454  1.21100000e+03 
644.419  1.27800000e+03 
644.383  1.29100000e+03 
644.347  1.20700000e+03 
644.311  1.26700000e+03 
644.275  1.29000000e+03 
644.239  1.24800000e+03 
644.203  1.23100000e+03 
644.167  1.36100000e+03 
644.131  1.26800000e+03 
644.095  1.37700000e+03 
644.059  1.31100000e+03 
644.024  1.31400000e+03 
643.988  1.34700000e+03 
643.952  1.33400000e+03 
643.916  1.28200000e+03 
643.880  1.28300000e+03 
643.844  1.37000000e+03 
643.808  1.43100000e+03 
643.772  1.30200000e+03 
643.736  1.38700000e+03 
643.700  1.39400000e+03 
643.664  1.41200000e+03 
643.628  1.39300000e+03 
643.593  1.42800000e+03 
643.557  1.38500000e+03 
643.521  1.42300000e+03 
643.485  1.42100000e+03 
643.449  1.38700000e+03 
643.413  1.41800000e+03 
643.377  1.45500000e+03 
643.341  1.44500000e+03 
643.305  1.42100000e+03 
643.269  1.42100000e+03 
643.233  1.45000000e+03 
643.198  1.46900000e+03 
643.162  1.43900000e+03 
643.126  1.51800000e+03 
643.090  1.48300000e+03 
643.054  1.47500000e+03 
643.018  1.51000000e+03 
642.982  1.43600000e+03 
642.946  1.53200000e+03 
642.910  1.50100000e+03 
642.874  1.42000000e+03 
642.838  1.51700000e+03 
642.802  1.42600000e+03 
642.767  1.47600000e+03 
642.731  1.48200000e+03 
642.695  1.45800000e+03 
642.659  1.47900000e+03 
642.623  1.48800000e+03 
642.587  1.50200000e+03 
642.551  1.52700000e+03 
642.515  1.49400000e+03 
642.479  1.41400000e+03 
642.443  1.50100000e+03 
642.407  1.48600000e+03 
642.372  1.51900000e+03 
642.336  1.46500000e+03 
642.300  1.47700000e+03 
642.264  1.49400000e+03 
642.228  1.49500000e+03 
642.192  1.46600000e+03 
642.156  1.51800000e+03 
642.120  1.53000000e+03 
642.084  1.42900000e+03 
642.048  1.49100000e+03 
642.012  1.49600000e+03 
641.976  1.45400000e+03 
641.941  1.48800000e+03 
641.905  1.43500000e+03 
641.869  1.41400000e+03 
641.833  1.43300000e+03 
641.797  1.38300000e+03 
641.761  1.40200000e+03 
641.725  1.46300000e+03 
641.689  1.35000000e+03 
641.653  1.32800000e+03 
641.617  1.30200000e+03 
641.581  1.33800000e+03 
641.546  1.37000000e+03 
641.510  1.34400000e+03 
641.474  1.30900000e+03 
641.438  1.34800000e+03 
641.402  1.22600000e+03 
641.366  1.33200000e+03 
641.330  1.31600000e+03 
641.294  1.33500000e+03 
641.258  1.28000000e+03 
641.222  1.19300000e+03 
641.186  1.28400000e+03 
641.150  1.20400000e+03 
641.115  1.21200000e+03 
641.079  1.18700000e+03 
641.043  1.19000000e+03 
641.007  1.18100000e+03 
640.971  1.16900000e+03 
640.935  1.15500000e+03 
640.899  1.11300000e+03 
640.863  1.14700000e+03 
640.827  1.11600000e+03 
640.791  1.08600000e+03 
640.755  1.03800000e+03 
640.720  1.08500000e+03 
640.684  1.05600000e+03 
640.648  1.03100000e+03 
640.612  1.05100000e+03 
640.576  1.02100000e+03 
640.540  9.62000000e+02 
640.504  1.01400000e+03 
640.468  9.82000000e+02 
640.432  9.12000000e+02 
640.396  9.13000000e+02 
640.360  9.22000000e+02 
640.324  8.98000000e+02 
640.289  9.15000000e+02 
640.253  8.33000000e+02 
640.217  8.72000000e+02 
640.181  8.34000000e+02 
640.145  8.95000000e+02 
640.109  8.95000000e+02 
640.073  9.13000000e+02 
640.037  8.60000000e+02 
640.001  8.85000000e+02 
639.965  9.23000000e+02 
639.929  8.31000000e+02 
639.894  8.34000000e+02 
639.858  8.34000000e+02 
639.822  8.33000000e+02 
639.786  8.19000000e+02 
639.750  7.88000000e+02 
639.714  8.12000000e+02 
639.678  8.35000000e+02 
639.642  7.89000000e+02 
639.606  8.48000000e+02 
639.570  7.83000000e+02 
639.534  8.75000000e+02 
639.498  7.90000000e+02 
639.463  8.26000000e+02 
639.427  8.29000000e+02 
639.391  8.36000000e+02 
639.355  8.62000000e+02 
639.319  8.17000000e+02 
639.283  7.83000000e+02 
639.247  8.20000000e+02 
639.211  8.11000000e+02 
639.175  7.73000000e+02 
639.139  7.99000000e+02 
639.103  7.79000000e+02 
639.068  8.03000000e+02 
639.032  7.73000000e+02 
638.996  7.88000000e+02 
638.960  7.98000000e+02 
638.924  7.85000000e+02 
638.888  7.88000000e+02 
638.852  8.11000000e+02 
638.816  8.30000000e+02 
638.780  7.89000000e+02 
638.744  7.75000000e+02 
638.708  7.99000000e+02 
638.672  8.05000000e+02 
638.637  7.94000000e+02 
638.601  7.88000000e+02 
638.565  7.91000000e+02 
638.529  8.17000000e+02 
638.493  7.79000000e+02 
638.457  7.91000000e+02 
638.421  8.45000000e+02 
638.385  7.56000000e+02 
638.349  7.57000000e+02 
638.313  7.75000000e+02 
638.277  8.10000000e+02 
638.242  8.34000000e+02 
638.206  7.50000000e+02 
638.170  8.37000000e+02 
638.134  7.80000000e+02 
638.098  8.14000000e+02 
638.062  8.48000000e+02 
638.026  7.76000000e+02 
637.990  7.90000000e+02 
637.954  8.22000000e+02 
637.918  7.92000000e+02 
637.882  8.32000000e+02 
637.847  7.80000000e+02 
637.811  7.82000000e+02 
637.775  8.26000000e+02 
637.739  8.09000000e+02 
637.703  7.83000000e+02 
637.667  7.66000000e+02 
637.631  7.69000000e+02 
637.595  8.44000000e+02 
637.559  7.41000000e+02 
637.523  8.05000000e+02 
637.487  7.85000000e+02 
637.451  7.65000000e+02 
637.416  7.68000000e+02 
637.380  7.80000000e+02 
637.344  8.23000000e+02 
637.308  7.67000000e+02 
637.272  7.51000000e+02 
637.236  7.80000000e+02 
637.200  8.13000000e+02 
637.164  8.55000000e+02 
637.128  8.29000000e+02 
637.092  7.85000000e+02 
637.056  7.96000000e+02 
637.021  7.53000000e+02 
[ Region 8 Curve ]
BEcenter= 643.000 
BEwidth= -11.959 
Excitation= 1486.600
Time_p_channel= 256.000 
Size= 334
648.979  1.06600000e+03 
648.944  1.11400000e+03 
648.908  1.10100000e+03 
648.872  1.11900000e+03 
648.836  1.10200000e+03 
648.800  1.06400000e+03 
648.764  1.04100000e+03 
648.728  1.07400000e+03 
648.692  1.08600000e+03 
648.656  1.12200000e+03 
648.620  1.14800000e+03 
648.584  1.07800000e+03 
648.549  1.11000000e+03 
648.513  1.07700000e+03 
648.477  1.14700000e+03 
648.441  1.07600000e+03 
648.405  1.14200000e+03 
648.369  1.05800000e+03 
648.333  1.10800000e+03 
648.297  1.10100000e+03 
648.261  1.12400000e+03 
648.225  1.07900000e+03 
648.189  1.11600000e+03 
648.153  1.07600000e+03 
648.118  1.07300000e+03 
648.082  1.11100000e+03 
648.046  1.07100000e+03 
648.010  1.08100000e+03 
647.974  1.09700000e+03 
647.938  1.17500000e+03 
647.902  1.05700000e+03 
647.866  1.09500000e+03 
647.830  1.20200000e+03 
647.794  1.14600000e+03 
647.758  1.09000000e+03 
647.723  1.13300000e+03 
647.687  1.14200000e+03 
647.651  1.12300000e+03 
647.615  1.11300000e+03 
647.579  1.13100000e+03 
647.543  1.11700000e+03 
647.507  1.04900000e+03 
647.471  1.12600000e+03 
647.435  1.09800000e+03 
647.399  1.18100000e+03 
647.363  1.14800000e+03 
647.328  1.16800000e+03 
647.292  1.10400000e+03 
647.256  1.10000000e+03 
647.220  1.15800000e+03 
647.184  1.16000000e+03 
647.148  1.09200000e+03 
647.112  1.13300000e+03 
647.076  1.11700000e+03 
647.040  1.13500000e+03 
647.004  1.15200000e+03 
646.968  1.11600000e+03 
646.932  1.10900000e+03 
646.897  1.16400000e+03 
646.861  1.06600000e+03 
646.825  1.10700000e+03 
646.789  1.11200000e+03 
646.753  1.09000000e+03 
646.717  1.05600000e+03 
646.681  1.08300000e+03 
646.645  1.11500000e+03 
646.609  1.09500000e+03 
646.573  1.13500000e+03 
646.537  1.15400000e+03 
646.502  1.12600000e+03 
646.466  1.08700000e+03 
646.430  1.06800000e+03 
646.394  1.13300000e+03 
646.358  1.12300000e+03 
646.322  1.13800000e+03 
646.286  1.09900000e+03 
646.250  1.15900000e+03 
646.214  1.14200000e+03 
646.178  1.16000000e+03 
646.142  1.12100000e+03 
646.106  1.16600000e+03 
646.071  1.22400000e+03 
646.035  1.13200000e+03 
645.999  1.11500000e+03 
645.963  1.15100000e+03 
645.927  1.13000000e+03 
645.891  1.13600000e+03 
645.855  1.17000000e+03 
645.819  1.11600000e+03 
645.783  1.19200000e+03 
645.747  1.19500000e+03 
645.711  1.14500000e+03 
645.676  1.17000000e+03 
645.640  1.18000000e+03 
645.604  1.11600000e+03 
645.568  1.16600000e+03 
645.532  1.24500000e+03 
645.496  1.17100000e+03 
645.460  1.15700000e+03 
645.424  1.16900000e+03 
645.388  1.14300000e+03 
645.352  1.20200000e+03 
645.316  1.22700000e+03 
645.280  1.18200000e+03 
645.245  1.22300000e+03 
645.209  1.18900000e+03 
645.173  1.22400000e+03 
645.137  1.20100000e+03 
645.101  1.23300000e+03 
645.065  1.24300000e+03 
645.029  1.20500000e+03 
644.993  1.22400000e+03 
644.957  1.24800000e+03 
644.921  1.23200000e+03 
644.885  1.21500000e+03 
644.850  1.28300000e+03 
644.814  1.22500000e+03 
644.778  1.20600000e+03 
644.742  1.23800000e+03 
644.706  1.29700000e+03 
644.670  1.23700000e+03 
644.634  1.26000000e+03 
644.598  1.23700000e+03 
644.562  1.25600000e+03 
644.526  1.27500000e+03 
644.490  1.29900000e+03 
644.454  1.25500000e+03 
644.419  1.28100000e+03 
644.383  1.25600000e+03 
644.347  1.27000000e+03 
644.311  1.41600000e+03 
644.275  1.35100000e+03 
644.239  1.31500000e+03 
644.203  1.40600000e+03 
644.167  1.33700000e+03 
644.131  1.34700000e+03 
644.095  1.32000000e+03 
644.059  1.35200000e+03 
644.024  1.39000000e+03 
643.988  1.37000000e+03 
643.952  1.35600000e+03 
643.916  1.45900000e+03 
643.880  1.43500000e+03 
643.844  1.42600000e+03 
643.808  1.47500000e+03 
643.772  1.44300000e+03 
643.736  1.45600000e+03 
643.700  1.42200000e+03 
643.664  1.40400000e+03 
643.628  1.48700000e+03 
643.593  1.51100000e+03 
643.557  1.46800000e+03 
643.521  1.51700000e+03 
643.485  1.50500000e+03 
643.449  1.52600000e+03 
643.413  1.52200000e+03 
643.377  1.50600000e+03 
643.341  1.56400000e+03 
643.305  1.52300000e+03 
643.269  1.59900000e+03 
643.233  1.48000000e+03 
643.198  1.53300000e+03 
643.162  1.52800000e+03 
643.126  1.57400000e+03 
643.090  1.56200000e+03 
643.054  1.57900000e+03 
643.018  1.58600000e+03 
642.982  1.59000000e+03 
642.946  1.54700000e+03 
642.910  1.52900000e+03 
642.874  1.51800000e+03 
642.838  1.56300000e+03 
642.802  1.56800000e+03 
642.767  1.63400000e+03 
642.731  1.62400000e+03 
642.695  1.67100000e+03 
642.659  1.59100000e+03 
642.623  1.57400000e+03 
642.587  1.61400000e+03 
642.551  1.57700000e+03 
642.515  1.65400000e+03 
642.479  1.58400000e+03 
642.443  1.55800000e+03 
642.407  1.60900000e+03 
642.372  1.53700000e+03 
642.336  1.57500000e+03 
642.300  1.58000000e+03 
642.264  1.64000000e+03 
642.228  1.61100000e+03 
642.192  1.65300000e+03 
642.156  1.57900000e+03 
642.120  1.52800000e+03 
642.084  1.53800000e+03 
642.048  1.59800000e+03 
642.012  1.51600000e+03 
641.976  1.52500000e+03 
641.941  1.59000000e+03 
641.905  1.49600000e+03 
641.869  1.58400000e+03 
641.833  1.53000000e+03 
641.797  1.49700000e+03 
641.761  1.42600000e+03 
641.725  1.55100000e+03 
641.689  1.54300000e+03 
641.653  1.40000000e+03 
641.617  1.48600000e+03 
641.581  1.52300000e+03 
641.546  1.47000000e+03 
641.510  1.48400000e+03 
641.474  1.49600000e+03 
641.438  1.39700000e+03 
641.402  1.42000000e+03 
641.366  1.42400000e+03 
641.330  1.43900000e+03 
641.294  1.45800000e+03 
641.258  1.38100000e+03 
641.222  1.35400000e+03 
641.186  1.31200000e+03 
641.150  1.34400000e+03 
641.115  1.29400000e+03 
641.079  1.32500000e+03 
641.043  1.33000000e+03 
641.007  1.29900000e+03 
640.971  1.17400000e+03 
640.935  1.20900000e+03 
640.899  1.17900000e+03 
640.863  1.24600000e+03 
640.827  1.14700000e+03 
640.791  1.23400000e+03 
640.755  1.18200000e+03 
640.720  1.23900000e+03 
640.684  1.11200000e+03 
640.648  1.10400000e+03 
640.612  1.16500000e+03 
640.576  1.08100000e+03 
640.540  1.05500000e+03 
640.504  9.93000000e+02 
640.468  1.01900000e+03 
640.432  1.03400000e+03 
640.396  1.00900000e+03 
640.360  1.07000000e+03 
640.324  9.91000000e+02 
640.289  9.96000000e+02 
640.253  9.26000000e+02 
640.217  1.03100000e+03 
640.181  9.80000000e+02 
640.145  1.00000000e+03 
640.109  9.01000000e+02 
640.073  9.39000000e+02 
640.037  9.16000000e+02 
640.001  9.40000000e+02 
639.965  9.85000000e+02 
639.929  9.20000000e+02 
639.894  8.85000000e+02 
639.858  9.14000000e+02 
639.822  9.29000000e+02 
639.786  8.70000000e+02 
639.750  8.70000000e+02 
639.714  8.78000000e+02 
639.678  9.07000000e+02 
639.642  8.42000000e+02 
639.606  8.64000000e+02 
639.570  8.78000000e+02 
639.534  8.36000000e+02 
639.498  8.52000000e+02 
639.463  8.49000000e+02 
639.427  8.71000000e+02 
639.391  8.81000000e+02 
639.355  8.71000000e+02 
639.319  8.86000000e+02 
639.283  8.60000000e+02 
639.247  8.02000000e+02 
639.211  8.50000000e+02 
639.175  8.16000000e+02 
639.139  8.79000000e+02 
639.103  8.10000000e+02 
639.068  8.76000000e+02 
639.032  8.86000000e+02 
638.996  8.34000000e+02 
638.960  9.00000000e+02 
638.924  8.37000000e+02 
638.888  8.78000000e+02 
638.852  8.69000000e+02 
638.816  8.05000000e+02 
638.780  8.59000000e+02 
638.744  8.59000000e+02 
638.708  8.67000000e+02 
638.672  8.26000000e+02 
638.637  8.56000000e+02 
638.601  8.38000000e+02 
638.565  8.52000000e+02 
638.529  8.78000000e+02 
638.493  8.28000000e+02 
638.457  7.86000000e+02 
638.421  8.65000000e+02 
638.385  7.80000000e+02 
638.349  8.30000000e+02 
638.313  8.67000000e+02 
638.277  8.23000000e+02 
638.242  8.66000000e+02 
638.206  8.19000000e+02 
638.170  8.52000000e+02 
638.134  8.27000000e+02 
638.098  8.39000000e+02 
638.062  8.30000000e+02 
638.026  8.62000000e+02 
637.990  8.20000000e+02 
637.954  8.13000000e+02 
637.918  8.03000000e+02 
637.882  8.91000000e+02 
637.847  8.31000000e+02 
637.811  8.12000000e+02 
637.775  8.65000000e+02 
637.739  8.46000000e+02 
637.703  8.19000000e+02 
637.667  8.77000000e+02 
637.631  7.97000000e+02 
637.595  8.08000000e+02 
637.559  8.45000000e+02 
637.523  8.51000000e+02 
637.487  8.75000000e+02 
637.451  8.58000000e+02 
637.416  8.37000000e+02 
637.380  8.23000000e+02 
637.344  8.25000000e+02 
637.308  8.11000000e+02 
637.272  8.46000000e+02 
637.236  8.10000000e+02 
637.200  8.18000000e+02 
637.164  8.50000000e+02 
637.128  8.31000000e+02 
637.092  8.37000000e+02 
637.056  8.42000000e+02 
637.021  8.11000000e+02 
[ Region 9 Curve ]
BEcenter= 643.000 
BEwidth= -11.959 
Excitation= 1486.600
Time_p_channel= 256.000 
Size= 334
648.979  1.12400000e+03 
648.944  1.13800000e+03 
648.908  1.19300000e+03 
648.872  1.14600000e+03 
648.836  1.15500000e+03 
648.800  1.16300000e+03 
648.764  1.19200000e+03 
648.728  1.17200000e+03 
648.692  1.20000000e+03 
648.656  1.17800000e+03 
648.620  1.09500000e+03 
648.584  1.12300000e+03 
648.549  1.19300000e+03 
648.513  1.14600000e+03 
648.477  1.14600000e+03 
648.441  1.13100000e+03 
648.405  1.13700000e+03 
648.369  1.11100000e+03 
648.333  1.19300000e+03 
648.297  1.15200000e+03 
648.261  1.12500000e+03 
648.225  1.24600000e+03 
648.189  1.12200000e+03 
648.153  1.21000000e+03 
648.118  1.18600000e+03 
648.082  1.17600000e+03 
648.046  1.13700000e+03 
648.010  1.18600000e+03 
647.974  1.20500000e+03 
647.938  1.20300000e+03 
647.902  1.20700000e+03 
647.866  1.16600000e+03 
647.830  1.16100000e+03 
647.794  1.09200000e+03 
647.758  1.19400000e+03 
647.723  1.16200000e+03 
647.687  1.10200000e+03 
647.651  1.13300000e+03 
647.615  1.17400000e+03 
647.579  1.16600000e+03 
647.543  1.22200000e+03 
647.507  1.17200000e+03 
647.471  1.18300000e+03 
647.435  1.17700000e+03 
647.399  1.12300000e+03 
647.363  1.16800000e+03 
647.328  1.16700000e+03 
647.292  1.21400000e+03 
647.256  1.14800000e+03 
647.220  1.18200000e+03 
647.184  1.19300000e+03 
647.148  1.26500000e+03 
647.112  1.13100000e+03 
647.076  1.12400000e+03 
647.040  1.17800000e+03 
647.004  1.17300000e+03 
646.968  1.23200000e+03 
646.932  1.17900000e+03 
646.897  1.17500000e+03 
646.861  1.20000000e+03 
646.825  1.12800000e+03 
646.789  1.13400000e+03 
646.753  1.20900000e+03 
646.717  1.21400000e+03 
646.681  1.25800000e+03 
646.645  1.15100000e+03 
646.609  1.15200000e+03 
646.573  1.22100000e+03 
646.537  1.15800000e+03 
646.502  1.23000000e+03 
646.466  1.23000000e+03 
646.430  1.16600000e+03 
646.394  1.23700000e+03 
646.358  1.19600000e+03 
646.322  1.18100000e+03 
646.286  1.18500000e+03 
646.250  1.18400000e+03 
646.214  1.21200000e+03 
646.178  1.20000000e+03 
646.142  1.19600000e+03 
646.106  1.25700000e+03 
646.071  1.19800000e+03 
646.035  1.21400000e+03 
645.999  1.15400000e+03 
645.963  1.26200000e+03 
645.927  1.22500000e+03 
645.891  1.21500000e+03 
645.855  1.20700000e+03 
645.819  1.19100000e+03 
645.783  1.19900000e+03 
645.747  1.25500000e+03 
645.711  1.21500000e+03 
645.676  1.18700000e+03 
645.640  1.21400000e+03 
645.604  1.21800000e+03 
645.568  1.25800000e+03 
645.532  1.23900000e+03 
645.496  1.15400000e+03 
645.460  1.32000000e+03 
645.424  1.26600000e+03 
645.388  1.21100000e+03 
645.352  1.29000000e+03 
645.316  1.15200000e+03 
645.280  1.27400000e+03 
645.245  1.32800000e+03 
645.209  1.27400000e+03 
645.173  1.22800000e+03 
645.137  1.24600000e+03 
645.101  1.27300000e+03 
645.065  1.28700000e+03 
645.029  1.30100000e+03 
644.993  1.28400000e+03 
644.957  1.27500000e+03 
644.921  1.26700000e+03 
644.885  1.37300000e+03 
644.850  1.29900000e+03 
644.814  1.31800000e+03 
644.778  1.31300000e+03 
644.742  1.25500000e+03 
644.706  1.31600000e+03 
644.670  1.26000000e+03 
644.634  1.42500000e+03 
644.598  1.37500000e+03 
644.562  1.32700000e+03 
644.526  1.37100000e+03 
644.490  1.38300000e+03 
644.454  1.37400000e+03 
644.419  1.34700000e+03 
644.383  1.39500000e+03 
644.347  1.42700000e+03 
644.311  1.42900000e+03 
644.275  1.41700000e+03 
644.239  1.36600000e+03 
644.203  1.45400000e+03 
644.167  1.44500000e+03 
644.131  1.37800000e+03 
644.095  1.41500000e+03 
644.059  1.49600000e+03 
644.024  1.44000000e+03 
643.988  1.49700000e+03 
643.952  1.55100000e+03 
643.916  1.43700000e+03 
643.880  1.49300000e+03 
643.844  1.47800000e+03 
643.808  1.52900000e+03 
643.772  1.55300000e+03 
643.736  1.51600000e+03 
643.700  1.50600000e+03 
643.664  1.52700000e+03 
643.628  1.56500000e+03 
643.593  1.55600000e+03 
643.557  1.58800000e+03 
643.521  1.61000000e+03 
643.485  1.54700000e+03 
643.449  1.62800000e+03 
643.413  1.63800000e+03 
643.377  1.59300000e+03 
643.341  1.63000000e+03 
643.305  1.63800000e+03 
643.269  1.64500000e+03 
643.233  1.68100000e+03 
643.198  1.70800000e+03 
643.162  1.61500000e+03 
643.126  1.70200000e+03 
643.090  1.63700000e+03 
643.054  1.67600000e+03 
643.018  1.72400000e+03 
642.982  1.66200000e+03 
642.946  1.73900000e+03 
642.910  1.63100000e+03 
642.874  1.63300000e+03 
642.838  1.63100000e+03 
642.802  1.75400000e+03 
642.767  1.72200000e+03 
642.731  1.68700000e+03 
642.695  1.67400000e+03 
642.659  1.66900000e+03 
642.623  1.67100000e+03 
642.587  1.67700000e+03 
642.551  1.66700000e+03 
642.515  1.65300000e+03 
642.479  1.70600000e+03 
642.443  1.75300000e+03 
642.407  1.68600000e+03 
642.372  1.73800000e+03 
642.336  1.65400000e+03 
642.300  1.70600000e+03 
642.264  1.75800000e+03 
642.228  1.67200000e+03 
642.192  1.66300000e+03 
642.156  1.64400000e+03 
642.120  1.61800000e+03 
642.084  1.66400000e+03 
642.048  1.70600000e+03 
642.012  1.66600000e+03 
641.976  1.67500000e+03 
641.941  1.70200000e+03 
641.905  1.62900000e+03 
641.869  1.69300000e+03 
641.833  1.60100000e+03 
641.797  1.57200000e+03 
641.761  1.63300000e+03 
641.725  1.60000000e+03 
641.689  1.60200000e+03 
641.653  1.53700000e+03 
641.617  1.56600000e+03 
641.581  1.47600000e+03 
641.546  1.53100000e+03 
641.510  1.54200000e+03 
641.474  1.48500000e+03 
641.438  1.49900000e+03 
641.402  1.55700000e+03 
641.366  1.45300000e+03 
641.330  1.52300000e+03 
641.294  1.46700000e+03 
641.258  1.51600000e+03 
641.222  1.41400000e+03 
641.186  1.34700000e+03 
641.150  1.38000000e+03 
641.115  1.40000000e+03 
641.079  1.35800000e+03 
641.043  1.33200000e+03 
641.007  1.31400000e+03 
640.971  1.24300000e+03 
640.935  1.27700000e+03 
640.899  1.26500000e+03 
640.863  1.26900000e+03 
640.827  1.28100000e+03 
640.791  1.18500000e+03 
640.755  1.27700000e+03 
640.720  1.20900000e+03 
640.684  1.21800000e+03 
640.648  1.18200000e+03 
640.612  1.15300000e+03 
640.576  1.10200000e+03 
640.540  1.15600000e+03 
640.504  1.15600000e+03 
640.468  1.08000000e+03 
640.432  1.09700000e+03 
640.396  1.08300000e+03 
640.360  1.03400000e+03 
640.324  1.04700000e+03 
640.289  1.02800000e+03 
640.253  1.03400000e+03 
640.217  1.00100000e+03 
640.181  1.05000000e+03 
640.145  9.66000000e+02 
640.109  9.92000000e+02 
640.073  9.75000000e+02 
640.037  9.50000000e+02 
640.001  9.82000000e+02 
639.965  9.74000000e+02 
639.929  9.76000000e+02 
639.894  9.04000000e+02 
639.858  9.67000000e+02 
639.822  9.64000000e+02 
639.786  8.69000000e+02 
639.750  9.19000000e+02 
639.714  9.50000000e+02 
639.678  9.22000000e+02 
639.642  9.23000000e+02 
639.606  8.91000000e+02 
639.570  9.37000000e+02 
639.534  8.85000000e+02 
639.498  9.54000000e+02 
639.463  8.60000000e+02 
639.427  8.88000000e+02 
639.391  8.85000000e+02 
639.355  8.70000000e+02 
639.319  8.85000000e+02 
639.283  8.72000000e+02 
639.247  9.18000000e+02 
639.211  8.85000000e+02 
639.175  8.56000000e+02 
639.139  9.03000000e+02 
639.103  9.26000000e+02 
639.068  8.99000000e+02 
639.032  8.72000000e+02 
638.996  8.60000000e+02 
638.960  8.48000000e+02 
638.924  8.86000000e+02 
638.888  8.91000000e+02 
638.852  8.81000000e+02 
638.816  8.67000000e+02 
638.780  8.33000000e+02 
638.744  9.32000000e+02 
638.708  8.64000000e+02 
638.672  8.57000000e+02 
638.637  9.25000000e+02 
638.601  9.16000000e+02 
638.565  8.40000000e+02 
638.529  8.99000000e+02 
638.493  9.15000000e+02 
638.457  9.03000000e+02 
638.421  8.58000000e+02 
638.385  9.06000000e+02 
638.349  8.68000000e+02 
638.313  9.13000000e+02 
638.277  8.53000000e+02 
638.242  8.97000000e+02 
638.206  8.99000000e+02 
638.170  8.75000000e+02 
638.134  8.57000000e+02 
638.098  8.86000000e+02 
638.062  8.79000000e+02 
638.026  8.93000000e+02 
637.990  8.70000000e+02 
637.954  8.76000000e+02 
637.918  8.61000000e+02 
637.882  8.59000000e+02 
637.847  9.03000000e+02 
637.811  8.79000000e+02 
637.775  8.48000000e+02 
637.739  8.27000000e+02 
637.703  8.94000000e+02 
637.667  9.06000000e+02 
637.631  9.01000000e+02 
637.595  8.60000000e+02 
637.559  8.99000000e+02 
637.523  8.60000000e+02 
637.487  8.60000000e+02 
637.451  9.19000000e+02 
637.416  8.78000000e+02 
637.380  8.59000000e+02 
637.344  8.39000000e+02 
637.308  8.66000000e+02 
637.272  8.77000000e+02 
637.236  8.72000000e+02 
637.200  8.66000000e+02 
637.164  8.99000000e+02 
637.128  8.81000000e+02 
637.092  8.45000000e+02 
637.056  9.39000000e+02 
637.021  8.73000000e+02 
[ Region 10 Curve ]
BEcenter= 643.000 
BEwidth= -11.959 
Excitation= 1486.600
Time_p_channel= 256.000 
Size= 334
648.979  1.24100000e+03 
648.944  1.20700000e+03 
648.908  1.14200000e+03 
648.872  1.20000000e+03 
648.836  1.23700000e+03 
648.800  1.26500000e+03 
648.764  1.25500000e+03 
648.728  1.19700000e+03 
648.692  1.26500000e+03 
648.656  1.20100000e+03 
648.620  1.21600000e+03 
648.584  1.20400000e+03 
648.549  1.23000000e+03 
648.513  1.24200000e+03 
648.477  1.13000000e+03 
648.441  1.18600000e+03 
648.405  1.15100000e+03 
648.369  1.21500000e+03 
648.333  1.22400000e+03 
648.297  1.20900000e+03 
648.261  1.17900000e+03 
648.225  1.22000000e+03 
648.189  1.25900000e+03 
648.153  1.25900000e+03 
648.118  1.18100000e+03 
648.082  1.27300000e+03 
648.046  1.19400000e+03 
648.010  1.26300000e+03 
647.974  1.22500000e+03 
647.938  1.23100000e+03 
647.902  1.26000000e+03 
647.866  1.14900000e+03 
647.830  1.21000000e+03 
647.794  1.23500000e+03 
647.758  1.20700000e+03 
647.723  1.21600000e+03 
647.687  1.21400000e+03 
647.651  1.20800000e+03 
647.615  1.18800000e+03 
647.579  1.24800000e+03 
647.543  1.18100000e+03 
647.507  1.27000000e+03 
647.471  1.22500000e+03 
647.435  1.25000000e+03 
647.399  1.20500000e+03 
647.363  1.20900000e+03 
647.328  1.20700000e+03 
647.292  1.23000000e+03 
647.256  1.19400000e+03 
647.220  1.24300000e+03 
647.184  1.25000000e+03 
647.148  1.20800000e+03 
647.112  1.26500000e+03 
647.076  1.20900000e+03 
647.040  1.22900000e+03 
647.004  1.17000000e+03 
646.968  1.22900000e+03 
646.932  1.27700000e+03 
646.897  1.18300000e+03 
646.861  1.23500000e+03 
646.825  1.20800000e+03 
646.789  1.30300000e+03 
646.753  1.26500000e+03 
646.717  1.24900000e+03 
646.681  1.17500000e+03 
646.645  1.24000000e+03 
646.609  1.19800000e+03 
646.573  1.22100000e+03 
646.537  1.22200000e+03 
646.502  1.21700000e+03 
646.466  1.26300000e+03 
646.430  1.27100000e+03 
646.394  1.19300000e+03 
646.358  1.26800000e+03 
646.322  1.24400000e+03 
646.286  1.24600000e+03 
646.250  1.19800000e+03 
646.214  1.26300000e+03 
646.178  1.25200000e+03 
646.142  1.23300000e+03 
646.106  1.22600000e+03 
646.071  1.16700000e+03 
646.035  1.28900000e+03 
645.999  1.21900000e+03 
645.963  1.28600000e+03 
645.927  1.27000000e+03 
645.891  1.22900000e+03 
645.855  1.19600000e+03 
645.819  1.27100000e+03 
645.783  1.26900000e+03 
645.747  1.27300000e+03 
645.711  1.27800000e+03 
645.676  1.32700000e+03 
645.640  1.29000000e+03 
645.604  1.23800000e+03 
645.568  1.23600000e+03 
645.532  1.27300000e+03 
645.496  1.29500000e+03 
645.460  1.30900000e+03 
645.424  1.34800000e+03 
645.388  1.32800000e+03 
645.352  1.28700000e+03 
645.316  1.31900000e+03 
645.280  1.27400000e+03 
645.245  1.30900000e+03 
645.209  1.36500000e+03 
645.173  1.31400000e+03 
645.137  1.34300000e+03 
645.101  1.34000000e+03 
645.065  1.33400000e+03 
645.029  1.31700000e+03 
644.993  1.38100000e+03 
644.957  1.33900000e+03 
644.921  1.35900000e+03 
644.885  1.39600000e+03 
644.850  1.41400000e+03 
644.814  1.34100000e+03 
644.778  1.36300000e+03 
644.742  1.38700000e+03 
644.706  1.41500000e+03 
644.670  1.36300000e+03 
644.634  1.49800000e+03 
644.598  1.43600000e+03 
644.562  1.46000000e+03 
644.526  1.39700000e+03 
644.490  1.52800000e+03 
644.454  1.41100000e+03 
644.419  1.44400000e+03 
644.383  1.47000000e+03 
644.347  1.46200000e+03 
644.311  1.36700000e+03 
644.275  1.45100000e+03 
644.239  1.42300000e+03 
644.203  1.50600000e+03 
644.167  1.50700000e+03 
644.131  1.45300000e+03 
644.095  1.50500000e+03 
644.059  1.48800000e+03 
644.024  1.54300000e+03 
643.988  1.59500000e+03 
643.952  1.56800000e+03 
643.916  1.51800000e+03 
643.880  1.55800000e+03 
643.844  1.62800000e+03 
643.808  1.58800000e+03 
643.772  1.61900000e+03 
643.736  1.63400000e+03 
643.700  1.66100000e+03 
643.664  1.71600000e+03 
643.628  1.60400000e+03 
643.593  1.63200000e+03 
643.557  1.64000000e+03 
643.521  1.60500000e+03 
643.485  1.67800000e+03 
643.449  1.71700000e+03 
643.413  1.69400000e+03 
643.377  1.76300000e+03 
643.341  1.68300000e+03 
643.305  1.70500000e+03 
643.269  1.68400000e+03 
643.233  1.65600000e+03 
643.198  1.63300000e+03 
643.162  1.72600000e+03 
643.126  1.72500000e+03 
643.090  1.71900000e+03 
643.054  1.70500000e+03 
643.018  1.76300000e+03 
642.982  1.79400000e+03 
642.946  1.78000000e+03 
642.910  1.71300000e+03 
642.874  1.77500000e+03 
642.838  1.77400000e+03 
642.802  1.78700000e+03 
642.767  1.75900000e+03 
642.731  1.92600000e+03 
642.695  1.82600000e+03 
642.659  1.83300000e+03 
642.623  1.75100000e+03 
642.587  1.77200000e+03 
642.551  1.78000000e+03 
642.515  1.79800000e+03 
642.479  1.77500000e+03 
642.443  1.73200000e+03 
642.407  1.78100000e+03 
642.372  1.70400000e+03 
642.336  1.82400000e+03 
642.300  1.82300000e+03 
642.264  1.72300000e+03 
642.228  1.78400000e+03 
642.192  1.66700000e+03 
642.156  1.73900000e+03 
642.120  1.73500000e+03 
642.084  1.74600000e+03 
642.048  1.71500000e+03 
642.012  1.77400000e+03 
641.976  1.68800000e+03 
641.941  1.72400000e+03 
641.905  1.68700000e+03 
641.869  1.77200000e+03 
641.833  1.72500000e+03 
641.797  1.64400000e+03 
641.761  1.70500000e+03 
641.725  1.59400000e+03 
641.689  1.68300000e+03 
641.653  1.62400000e+03 
641.617  1.62400000e+03 
641.581  1.68100000e+03 
641.546  1.59300000e+03 
641.510  1.53100000e+03 
641.474  1.59800000e+03 
641.438  1.56200000e+03 
641.402  1.50800000e+03 
641.366  1.61200000e+03 
641.330  1.51500000e+03 
641.294  1.52500000e+03 
641.258  1.52400000e+03 
641.222  1.51700000e+03 
641.186  1.39500000e+03 
641.150  1.45000000e+03 
641.115  1.46300000e+03 
641.079  1.51200000e+03 
641.043  1.41500000e+03 
641.007  1.45600000e+03 
640.971  1.34600000e+03 
640.935  1.34000000e+03 
640.899  1.37500000e+03 
640.863  1.33700000e+03 
640.827  1.27900000e+03 
640.791  1.30100000e+03 
640.755  1.28700000e+03 
640.720  1.15900000e+03 
640.684  1.26200000e+03 
640.648  1.24800000e+03 
640.612  1.20100000e+03 
640.576  1.18700000e+03 
640.540  1.15300000e+03 
640.504  1.18000000e+03 
640.468  1.14700000e+03 
640.432  1.11800000e+03 
640.396  1.07100000e+03 
640.360  1.18000000e+03 
640.324  1.05200000e+03 
640.289  1.02700000e+03 
640.253  1.08300000e+03 
640.217  1.11100000e+03 
640.181  1.02200000e+03 
640.145  1.02400000e+03 
640.109  9.83000000e+02 
640.073  1.00800000e+03 
640.037  9.55000000e+02 
640.001  1.03300000e+03 
639.965  9.83000000e+02 
639.929  9.82000000e+02 
639.894  1.01500000e+03 
639.858  9.70000000e+02 
639.822  9.33000000e+02 
639.786  9.61000000e+02 
639.750  9.56000000e+02 
639.714  9.01000000e+02 
639.678  9.66000000e+02 
639.642  8.99000000e+02 
639.606  9.39000000e+02 
639.570  8.97000000e+02 
639.534  9.46000000e+02 
639.498  9.26000000e+02 
639.463  9.56000000e+02 
639.427  8.88000000e+02 
639.391  9.24000000e+02 
639.355  8.62000000e+02 
639.319  8.93000000e+02 
639.283  8.98000000e+02 
639.247  9.15000000e+02 
639.211  9.31000000e+02 
639.175  8.72000000e+02 
639.139  9.19000000e+02 
639.103  8.77000000e+02 
639.068  8.97000000e+02 
639.032  9.05000000e+02 
638.996  9.44000000e+02 
638.960  9.28000000e+02 
638.924  8.94000000e+02 
638.888  9.05000000e+02 
638.852  9.08000000e+02 
638.816  9.21000000e+02 
638.780  8.84000000e+02 
638.744  9.04000000e+02 
638.708  9.20000000e+02 
638.672  9.02000000e+02 
638.637  9.31000000e+02 
638.601  9.17000000e+02 
638.565  9.09000000e+02 
638.529  9.13000000e+02 
638.493  9.19000000e+02 
638.457  8.86000000e+02 
638.421  8.37000000e+02 
638.385  9.28000000e+02 
638.349  9.40000000e+02 
638.313  9.39000000e+02 
638.277  9.10000000e+02 
638.242  8.64000000e+02 
638.206  9.35000000e+02 
638.170  9.00000000e+02 
638.134  8.37000000e+02 
638.098  8.92000000e+02 
638.062  9.15000000e+02 
638.026  9.10000000e+02 
637.990  9.17000000e+02 
637.954  8.91000000e+02 
637.918  8.47000000e+02 
637.882  9.44000000e+02 
637.847  8.66000000e+02 
637.811  9.28000000e+02 
637.775  9.43000000e+02 
637.739  9.23000000e+02 
637.703  9.32000000e+02 
637.667  9.40000000e+02 
637.631  9.08000000e+02 
637.595  8.66000000e+02 
637.559  8.99000000e+02 
637.523  9.39000000e+02 
637.487  8.76000000e+02 
637.451  9.17000000e+02 
637.416  9.18000000e+02 
637.380  8.77000000e+02 
637.344  9.09000000e+02 
637.308  9.20000000e+02 
637.272  8.55000000e+02 
637.236  8.98000000e+02 
637.200  9.47000000e+02 
637.164  9.18000000e+02 
637.128  8.42000000e+02 
637.092  8.86000000e+02 
637.056  9.08000000e+02 
637.021  8.46000000e+02 
[ Region 11 Curve ]
BEcenter= 643.000 
BEwidth= -11.959 
Excitation= 1486.600
Time_p_channel= 256.000 
Size= 334
648.979  1.25800000e+03 
648.944  1.39100000e+03 
648.908  1.25200000e+03 
648.872  1.29100000e+03 
648.836  1.26800000e+03 
648.800  1.26200000e+03 
648.764  1.32900000e+03 
648.728  1.23000000e+03 
648.692  1.22300000e+03 
648.656  1.20500000e+03 
648.620  1.31900000e+03 
648.584  1.27400000e+03 
648.549  1.27400000e+03 
648.513  1.22600000e+03 
648.477  1.22300000e+03 
648.441  1.23600000e+03 
648.405  1.21000000e+03 
648.369  1.28200000e+03 
648.333  1.29100000e+03 
648.297  1.26100000e+03 
648.261  1.28800000e+03 
648.225  1.25800000e+03 
648.189  1.25100000e+03 
648.153  1.33100000e+03 
648.118  1.31300000e+03 
648.082  1.22300000e+03 
648.046  1.28200000e+03 
648.010  1.33900000e+03 
647.974  1.19700000e+03 
647.938  1.30300000e+03 
647.902  1.28300000e+03 
647.866  1.32700000e+03 
647.830  1.21900000e+03 
647.794  1.28700000e+03 
647.758  1.33300000e+03 
647.723  1.35200000e+03 
647.687  1.22900000e+03 
647.651  1.23000000e+03 
647.615  1.29900000e+03 
647.579  1.25700000e+03 
647.543  1.25200000e+03 
647.507  1.20500000e+03 
647.471  1.28700000e+03 
647.435  1.27600000e+03 
647.399  1.26600000e+03 
647.363  1.29700000e+03 
647.328  1.28500000e+03 
647.292  1.35900000e+03 
647.256  1.27100000e+03 
647.220  1.28100000e+03 
647.184  1.29800000e+03 
647.148  1.25200000e+03 
647.112  1.26600000e+03 
647.076  1.25900000e+03 
647.040  1.32200000e+03 
647.004  1.25000000e+03 
646.968  1.24300000e+03 
646.932  1.21800000e+03 
646.897  1.22400000e+03 
646.861  1.24100000e+03 
646.825  1.25100000e+03 
646.789  1.33500000e+03 
646.753  1.28100000e+03 
646.717  1.33400000e+03 
646.681  1.27700000e+03 
646.645  1.32100000e+03 
646.609  1.32300000e+03 
646.573  1.28800000e+03 
646.537  1.25800000e+03 
646.502  1.30900000e+03 
646.466  1.25600000e+03 
646.430  1.24000000e+03 
646.394  1.24800000e+03 
646.358  1.36600000e+03 
646.322  1.28500000e+03 
646.286  1.32800000e+03 
646.250  1.27200000e+03 
646.214  1.33000000e+03 
646.178  1.32900000e+03 
646.142  1.25600000e+03 
646.106  1.32100000e+03 
646.071  1.33900000e+03 
646.035  1.35100000e+03 
645.999  1.28900000e+03 
645.963  1.30100000e+03 
645.927  1.25100000e+03 
645.891  1.30900000e+03 
645.855  1.31900000e+03 
645.819  1.37600000e+03 
645.783  1.29900000e+03 
645.747  1.34600000e+03 
645.711  1.33800000e+03 
645.676  1.40100000e+03 
645.640  1.35600000e+03 
645.604  1.32000000e+03 
645.568  1.31800000e+03 
645.532  1.39200000e+03 
645.496  1.35700000e+03 
645.460  1.30100000e+03 
645.424  1.39300000e+03 
645.388  1.36200000e+03 
645.352  1.38000000e+03 
645.316  1.34800000e+03 
645.280  1.34900000e+03 
645.245  1.39300000e+03 
645.209  1.35900000e+03 
645.173  1.41400000e+03 
645.137  1.36800000e+03 
645.101  1.50500000e+03 
645.065  1.39900000e+03 
645.029  1.39700000e+03 
644.993  1.40500000e+03 
644.957  1.47000000e+03 
644.921  1.48100000e+03 
644.885  1.41700000e+03 
644.850  1.44400000e+03 
644.814  1.44300000e+03 
644.778  1.49900000e+03 
644.742  1.43300000e+03 
644.706  1.46700000e+03 
644.670  1.48600000e+03 
644.634  1.46300000e+03 
644.598  1.43200000e+03 
644.562  1.46800000e+03 
644.526  1.45500000e+03 
644.490  1.53600000e+03 
644.454  1.52200000e+03 
644.419  1.54400000e+03 
644.383  1.58300000e+03 
644.347  1.54800000e+03 
644.311  1.59400000e+03 
644.275  1.58200000e+03 
644.239  1.61100000e+03 
644.203  1.59600000e+03 
644.167  1.59100000e+03 
644.131  1.60700000e+03 
644.095  1.52300000e+03 
644.059  1.62900000e+03 
644.024  1.63500000e+03 
643.988  1.69500000e+03 
643.952  1.65400000e+03 
643.916  1.66100000e+03 
643.880  1.62100000e+03 
643.844  1.72500000e+03 
643.808  1.66900000e+03 
643.772  1.71300000e+03 
643.736  1.66800000e+03 
643.700  1.67000000e+03 
643.664  1.74700000e+03 
643.628  1.73200000e+03 
643.593  1.68100000e+03 
643.557  1.74500000e+03 
643.521  1.76200000e+03 
643.485  1.78400000e+03 
643.449  1.79400000e+03 
643.413  1.66000000e+03 
643.377  1.73400000e+03 
643.341  1.81700000e+03 
643.305  1.76500000e+03 
643.269  1.87600000e+03 
643.233  1.76400000e+03 
643.198  1.76300000e+03 
643.162  1.81900000e+03 
643.126  1.81700000e+03 
643.090  1.88300000e+03 
643.054  1.83800000e+03 
643.018  1.84700000e+03 
642.982  1.77200000e+03 
642.946  1.89600000e+03 
642.910  1.85900000e+03 
642.874  1.83600000e+03 
642.838  1.90100000e+03 
642.802  1.85400000e+03 
642.767  1.84500000e+03 
642.731  1.84500000e+03 
642.695  1.93900000e+03 
642.659  1.85400000e+03 
642.623  1.92500000e+03 
642.587  1.85300000e+03 
642.551  1.86800000e+03 
642.515  1.89300000e+03 
642.479  1.90100000e+03 
642.443  1.86000000e+03 
642.407  1.86600000e+03 
642.372  1.83600000e+03 
642.336  1.90600000e+03 
642.300  1.88000000e+03 
642.264  1.80600000e+03 
642.228  1.81800000e+03 
642.192  1.90500000e+03 
642.156  1.76300000e+03 
642.120  1.79600000e+03 
642.084  1.83500000e+03 
642.048  1.79600000e+03 
642.012  1.83100000e+03 
641.976  1.82500000e+03 
641.941  1.79600000e+03 
641.905  1.78500000e+03 
641.869  1.77100000e+03 
641.833  1.79500000e+03 
641.797  1.79900000e+03 
641.761  1.75600000e+03 
641.725  1.72500000e+03 
641.689  1.83300000e+03 
641.653  1.72500000e+03 
641.617  1.70600000e+03 
641.581  1.70500000e+03 
641.546  1.70600000e+03 
641.510  1.72200000e+03 
641.474  1.62800000e+03 
641.438  1.60500000e+03 
641.402  1.62100000e+03 
641.366  1.60600000e+03 
641.330  1.64300000e+03 
641.294  1.52800000e+03 
641.258  1.59900000e+03 
641.222  1.56900000e+03 
641.186  1.50500000e+03 
641.150  1.43100000e+03 
641.115  1.58000000e+03 
641.079  1.48600000e+03 
641.043  1.52700000e+03 
641.007  1.43200000e+03 
640.971  1.40600000e+03 
640.935  1.42500000e+03 
640.899  1.41300000e+03 
640.863  1.40200000e+03 
640.827  1.33800000e+03 
640.791  1.31800000e+03 
640.755  1.32500000e+03 
640.720  1.28700000e+03 
640.684  1.26800000e+03 
640.648  1.25100000e+03 
640.612  1.27700000e+03 
640.576  1.23600000e+03 
640.540  1.27900000e+03 
640.504  1.19200000e+03 
640.468  1.14200000e+03 
640.432  1.16200000e+03 
640.396  1.16900000e+03 
640.360  1.14500000e+03 
640.324  1.09100000e+03 
640.289  1.13800000e+03 
640.253  1.12200000e+03 
640.217  1.12200000e+03 
640.181  1.01300000e+03 
640.145  1.12000000e+03 
640.109  1.01600000e+03 
640.073  1.06800000e+03 
640.037  1.08400000e+03 
640.001  1.03200000e+03 
639.965  1.12200000e+03 
639.929  9.62000000e+02 
639.894  9.65000000e+02 
639.858  1.02900000e+03 
639.822  9.89000000e+02 
639.786  9.70000000e+02 
639.750  1.02700000e+03 
639.714  9.48000000e+02 
639.678  9.46000000e+02 
639.642  1.00500000e+03 
639.606  9.47000000e+02 
639.570  9.59000000e+02 
639.534  9.56000000e+02 
639.498  1.00600000e+03 
639.463  8.85000000e+02 
639.427  9.47000000e+02 
639.391  9.31000000e+02 
639.355  1.00300000e+03 
639.319  9.42000000e+02 
639.283  9.59000000e+02 
639.247  9.08000000e+02 
639.211  9.89000000e+02 
639.175  9.18000000e+02 
639.139  9.46000000e+02 
639.103  9.42000000e+02 
639.068  9.15000000e+02 
639.032  9.61000000e+02 
638.996  1.01300000e+03 
638.960  9.28000000e+02 
638.924  9.69000000e+02 
638.888  8.87000000e+02 
638.852  9.78000000e+02 
638.816  8.92000000e+02 
638.780  9.32000000e+02 
638.744  9.37000000e+02 
638.708  9.18000000e+02 
638.672  9.32000000e+02 
638.637  9.55000000e+02 
638.601  9.70000000e+02 
638.565  9.58000000e+02 
638.529  9.38000000e+02 
638.493  9.20000000e+02 
638.457  9.21000000e+02 
638.421  9.32000000e+02 
638.385  9.32000000e+02 
638.349  9.61000000e+02 
638.313  9.37000000e+02 
638.277  8.88000000e+02 
638.242  9.40000000e+02 
638.206  9.85000000e+02 
638.170  9.48000000e+02 
638.134  9.49000000e+02 
638.098  9.18000000e+02 
638.062  9.01000000e+02 
638.026  8.93000000e+02 
637.990  9.87000000e+02 
637.954  9.58000000e+02 
637.918  9.18000000e+02 
637.882  9.16000000e+02 
637.847  9.16000000e+02 
637.811  9.18000000e+02 
637.775  9.68000000e+02 
637.739  9.63000000e+02 
637.703  9.62000000e+02 
637.667  9.30000000e+02 
637.631  9.26000000e+02 
637.595  9.64000000e+02 
637.559  9.51000000e+02 
637.523  9.62000000e+02 
637.487  8.94000000e+02 
637.451  9.61000000e+02 
637.416  9.18000000e+02 
637.380  9.49000000e+02 
637.344  8.92000000e+02 
637.308  8.72000000e+02 
637.272  9.65000000e+02 
637.236  9.44000000e+02 
637.200  9.81000000e+02 
637.164  8.90000000e+02 
637.128  9.35000000e+02 
637.092  9.20000000e+02 
637.056  9.69000000e+02 
637.021  9.59000000e+02 
[ Region 12 Curve ]
BEcenter= 643.000 
BEwidth= -11.959 
Excitation= 1486.600
Time_p_channel= 256.000 
Size= 334
648.979  1.27600000e+03 
648.944  1.31300000e+03 
648.908  1.34600000e+03 
648.872  1.35800000e+03 
648.836  1.33300000e+03 
648.800  1.31800000e+03 
648.764  1.27100000e+03 
648.728  1.32800000e+03 
648.692  1.37000000e+03 
648.656  1.32600000e+03 
648.620  1.35000000e+03 
648.584  1.37500000e+03 
648.549  1.32600000e+03 
648.513  1.25900000e+03 
648.477  1.35600000e+03 
648.441  1.30100000e+03 
648.405  1.27500000e+03 
648.369  1.30500000e+03 
648.333  1.36700000e+03 
648.297  1.30900000e+03 
648.261  1.28900000e+03 
648.225  1.30900000e+03 
648.189  1.30200000e+03 
648.153  1.32800000e+03 
648.118  1.33600000e+03 
648.082  1.30000000e+03 
648.046  1.36100000e+03 
648.010  1.30300000e+03 
647.974  1.29800000e+03 
647.938  1.30100000e+03 
647.902  1.36100000e+03 
647.866  1.38300000e+03 
647.830  1.43200000e+03 
647.794  1.35400000e+03 
647.758  1.28100000e+03 
647.723  1.35200000e+03 
647.687  1.31600000e+03 
647.651  1.31900000e+03 
647.615  1.33000000e+03 
647.579  1.35100000e+03 
647.543  1.37000000e+03 
647.507  1.32100000e+03 
647.471  1.30300000e+03 
647.435  1.38200000e+03 
647.399  1.36800000e+03 
647.363  1.35700000e+03 
647.328  1.32200000e+03 
647.292  1.34200000e+03 
647.256  1.31900000e+03 
647.220  1.32300000e+03 
647.184  1.35900000e+03 
647.148  1.39800000e+03 
647.112  1.26900000e+03 
647.076  1.34800000e+03 
647.040  1.28300000e+03 
647.004  1.27700000e+03 
646.968  1.34700000e+03 
646.932  1.35600000e+03 
646.897  1.35700000e+03 
646.861  1.39400000e+03 
646.825  1.35800000e+03 
646.789  1.30100000e+03 
646.753  1.38100000e+03 
646.717  1.38500000e+03 
646.681  1.34700000e+03 
646.645  1.30900000e+03 
646.609  1.32800000e+03 
646.573  1.26700000e+03 
646.537  1.41300000e+03 
646.502  1.37200000e+03 
646.466  1.34000000e+03 
646.430  1.30600000e+03 
646.394  1.37000000e+03 
646.358  1.35200000e+03 
646.322  1.36500000e+03 
646.286  1.35400000e+03 
646.250  1.31400000e+03 
646.214  1.36600000e+03 
646.178  1.35000000e+03 
646.142  1.34200000e+03 
646.106  1.41300000e+03 
646.071  1.40400000e+03 
646.035  1.39200000e+03 
645.999  1.38200000e+03 
645.963  1.39500000e+03 
645.927  1.35000000e+03 
645.891  1.44600000e+03 
645.855  1.41500000e+03 
645.819  1.41900000e+03 
645.783  1.38800000e+03 
645.747  1.41600000e+03 
645.711  1.34400000e+03 
645.676  1.40000000e+03 
645.640  1.36700000e+03 
645.604  1.41800000e+03 
645.568  1.40200000e+03 
645.532  1.42200000e+03 
645.496  1.45100000e+03 
645.460  1.40600000e+03 
645.424  1.46600000e+03 
645.388  1.47200000e+03 
645.352  1.45000000e+03 
645.316  1.47300000e+03 
645.280  1.45900000e+03 
645.245  1.50000000e+03 
645.209  1.49700000e+03 
645.173  1.43300000e+03 
645.137  1.46900000e+03 
645.101  1.45300000e+03 
645.065  1.50500000e+03 
645.029  1.54800000e+03 
644.993  1.55200000e+03 
644.957  1.48400000e+03 
644.921  1.54000000e+03 
644.885  1.56800000e+03 
644.850  1.54800000e+03 
644.814  1.56200000e+03 
644.778  1.58000000e+03 
644.742  1.55600000e+03 
644.706  1.57900000e+03 
644.670  1.55700000e+03 
644.634  1.57300000e+03 
644.598  1.51400000e+03 
644.562  1.61100000e+03 
644.526  1.59300000e+03 
644.490  1.66500000e+03 
644.454  1.52500000e+03 
644.419  1.57400000e+03 
644.383  1.65900000e+03 
644.347  1.56900000e+03 
644.311  1.68500000e+03 
644.275  1.63400000e+03 
644.239  1.60400000e+03 
644.203  1.75800000e+03 
644.167  1.66400000e+03 
644.131  1.71700000e+03 
644.095  1.70300000e+03 
644.059  1.81200000e+03 
644.024  1.72700000e+03 
643.988  1.69600000e+03 
643.952  1.76700000e+03 
643.916  1.71400000e+03 
643.880  1.65400000e+03 
643.844  1.74400000e+03 
643.808  1.80500000e+03 
643.772  1.76700000e+03 
643.736  1.76600000e+03 
643.700  1.70000000e+03 
643.664  1.74600000e+03 
643.628  1.84500000e+03 
643.593  1.83000000e+03 
643.557  1.84100000e+03 
643.521  1.83000000e+03 
643.485  1.87800000e+03 
643.449  1.88000000e+03 
643.413  1.89700000e+03 
643.377  1.92100000e+03 
643.341  1.84900000e+03 
643.305  1.93800000e+03 
643.269  1.86600000e+03 
643.233  1.86000000e+03 
643.198  1.97400000e+03 
643.162  1.95900000e+03 
643.126  1.97800000e+03 
643.090  1.89200000e+03 
643.054  1.91300000e+03 
643.018  1.87400000e+03 
642.982  1.97400000e+03 
642.946  1.88500000e+03 
642.910  2.06600000e+03 
642.874  1.89400000e+03 
642.838  1.99200000e+03 
642.802  2.04300000e+03 
642.767  1.99000000e+03 
642.731  2.01400000e+03 
642.695  2.04000000e+03 
642.659  1.94800000e+03 
642.623  1.99400000e+03 
642.587  1.98000000e+03 
642.551  1.97700000e+03 
642.515  1.98700000e+03 
642.479  1.98900000e+03 
642.443  1.97100000e+03 
642.407  2.07600000e+03 
642.372  1.98700000e+03 
642.336  1.98300000e+03 
642.300  1.97500000e+03 
642.264  1.87300000e+03 
642.228  1.94400000e+03 
642.192  1.95000000e+03 
642.156  1.97400000e+03 
642.120  1.99200000e+03 
642.084  1.94600000e+03 
642.048  1.90500000e+03 
642.012  1.98600000e+03 
641.976  1.88800000e+03 
641.941  1.84200000e+03 
641.905  1.94800000e+03 
641.869  1.87000000e+03 
641.833  1.86700000e+03 
641.797  1.85500000e+03 
641.761  1.92000000e+03 
641.725  1.88700000e+03 
641.689  1.80900000e+03 
641.653  1.81100000e+03 
641.617  1.77700000e+03 
641.581  1.78100000e+03 
641.546  1.83200000e+03 
641.510  1.78000000e+03 
641.474  1.82000000e+03 
641.438  1.69100000e+03 
641.402  1.81300000e+03 
641.366  1.71400000e+03 
641.330  1.66800000e+03 
641.294  1.68700000e+03 
641.258  1.63800000e+03 
641.222  1.71200000e+03 
641.186  1.57900000e+03 
641.150  1.62000000e+03 
641.115  1.62900000e+03 
641.079  1.58000000e+03 
641.043  1.59800000e+03 
641.007  1.50800000e+03 
640.971  1.49700000e+03 
640.935  1.45000000e+03 
640.899  1.51400000e+03 
640.863  1.44000000e+03 
640.827  1.43100000e+03 
640.791  1.38600000e+03 
640.755  1.36600000e+03 
640.720  1.40400000e+03 
640.684  1.34400000e+03 
640.648  1.41600000e+03 
640.612  1.35800000e+03 
640.576  1.34000000e+03 
640.540  1.23700000e+03 
640.504  1.25900000e+03 
640.468  1.25000000e+03 
640.432  1.25900000e+03 
640.396  1.26500000e+03 
640.360  1.20500000e+03 
640.324  1.17300000e+03 
640.289  1.22800000e+03 
640.253  1.21200000e+03 
640.217  1.06200000e+03 
640.181  1.09800000e+03 
640.145  1.08200000e+03 
640.109  1.07400000e+03 
640.073  1.16900000e+03 
640.037  1.07400000e+03 
640.001  1.05300000e+03 
639.965  1.07500000e+03 
639.929  1.05300000e+03 
639.894  1.07700000e+03 
639.858  1.00100000e+03 
639.822  1.01800000e+03 
639.786  1.02700000e+03 
639.750  9.98000000e+02 
639.714  1.01200000e+03 
639.678  9.97000000e+02 
639.642  1.00300000e+03 
639.606  1.02000000e+03 
639.570  1.04600000e+03 
639.534  1.01000000e+03 
639.498  9.63000000e+02 
639.463  9.99000000e+02 
639.427  1.01800000e+03 
639.391  1.06500000e+03 
639.355  9.59000000e+02 
639.319  9.51000000e+02 
639.283  9.49000000e+02 
639.247  1.05900000e+03 
639.211  1.03000000e+03 
639.175  9.64000000e+02 
639.139  1.00200000e+03 
639.103  9.99000000e+02 
639.068  9.92000000e+02 
639.032  1.01500000e+03 
638.996  9.36000000e+02 
638.960  1.05000000e+03 
638.924  9.53000000e+02 
638.888  1.01200000e+03 
638.852  1.01200000e+03 
638.816  9.52000000e+02 
638.780  1.02900000e+03 
638.744  9.85000000e+02 
638.708  9.45000000e+02 
638.672  9.95000000e+02 
638.637  9.92000000e+02 
638.601  1.00300000e+03 
638.565  9.89000000e+02 
638.529  9.58000000e+02 
638.493  1.04000000e+03 
638.457  9.99000000e+02 
638.421  9.39000000e+02 
638.385  9.77000000e+02 
638.349  9.25000000e+02 
638.313  9.86000000e+02 
638.277  9.87000000e+02 
638.242  9.78000000e+02 
638.206  1.00500000e+03 
638.170  9.86000000e+02 
638.134  9.84000000e+02 
638.098  9.22000000e+02 
638.062  1.01300000e+03 
638.026  9.13000000e+02 
637.990  9.61000000e+02 
637.954  9.03000000e+02 
637.918  9.43000000e+02 
637.882  9.51000000e+02 
637.847  9.83000000e+02 
637.811  8.98000000e+02 
637.775  1.01000000e+03 
637.739  9.91000000e+02 
637.703  9.57000000e+02 
637.667  9.80000000e+02 
637.631  1.02300000e+03 
637.595  1.01500000e+03 
637.559  9.67000000e+02 
637.523  9.57000000e+02 
637.487  9.79000000e+02 
637.451  9.61000000e+02 
637.416  9.64000000e+02 
637.380  9.85000000e+02 
637.344  9.45000000e+02 
637.308  9.69000000e+02 
637.272  9.07000000e+02 
637.236  9.94000000e+02 
637.200  9.58000000e+02 
637.164  1.01100000e+03 
637.128  9.44000000e+02 
637.092  9.69000000e+02 
637.056  9.61000000e+02 
637.021  9.60000000e+02 
[ Region 13 Curve ]
BEcenter= 643.000 
BEwidth= -11.959 
Excitation= 1486.600
Time_p_channel= 256.000 
Size= 334
648.979  1.34000000e+03 
648.944  1.37700000e+03 
648.908  1.34300000e+03 
648.872  1.31200000e+03 
648.836  1.40700000e+03 
648.800  1.36700000e+03 
648.764  1.36300000e+03 
648.728  1.34400000e+03 
648.692  1.38300000e+03 
648.656  1.35000000e+03 
648.620  1.33100000e+03 
648.584  1.41800000e+03 
648.549  1.35600000e+03 
648.513  1.38300000e+03 
648.477  1.30500000e+03 
648.441  1.33400000e+03 
648.405  1.35800000e+03 
648.369  1.40900000e+03 
648.333  1.34700000e+03 
648.297  1.42200000e+03 
648.261  1.41500000e+03 
648.225  1.41800000e+03 
648.189  1.36100000e+03 
648.153  1.40100000e+03 
648.118  1.36300000e+03 
648.082  1.38900000e+03 
648.046  1.38700000e+03 
648.010  1.40300000e+03 
647.974  1.40500000e+03 
647.938  1.41300000e+03 
647.902  1.45300000e+03 
647.866  1.40900000e+03 
647.830  1.37900000e+03 
647.794  1.36500000e+03 
647.758  1.39900000e+03 
647.723  1.37600000e+03 
647.687  1.46200000e+03 
647.651  1.38900000e+03 
647.615  1.40500000e+03 
647.579  1.43000000e+03 
647.543  1.36700000e+03 
647.507  1.42800000e+03 
647.471  1.47100000e+03 
647.435  1.34300000e+03 
647.399  1.41100000e+03 
647.363  1.42700000e+03 
647.328  1.46700000e+03 
647.292  1.42400000e+03 
647.256  1.39700000e+03 
647.220  1.43700000e+03 
647.184  1.39100000e+03 
647.148  1.45400000e+03 
647.112  1.35400000e+03 
647.076  1.38600000e+03 
647.040  1.42800000e+03 
647.004  1.39600000e+03 
646.968  1.38800000e+03 
646.932  1.43700000e+03 
646.897  1.45200000e+03 
646.861  1.38600000e+03 
646.825  1.42200000e+03 
646.789  1.41900000e+03 
646.753  1.41600000e+03 
646.717  1.45100000e+03 
646.681  1.38800000e+03 
646.645  1.42100000e+03 
646.609  1.43500000e+03 
646.573  1.46100000e+03 
646.537  1.37100000e+03 
646.502  1.41200000e+03 
646.466  1.43400000e+03 
646.430  1.41400000e+03 
646.394  1.44400000e+03 
646.358  1.36300000e+03 
646.322  1.42900000e+03 
646.286  1.47900000e+03 
646.250  1.41300000e+03 
646.214  1.41900000e+03 
646.178  1.43200000e+03 
646.142  1.42400000e+03 
646.106  1.41800000e+03 
646.071  1.43500000e+03 
646.035  1.44100000e+03 
645.999  1.49600000e+03 
645.963  1.41300000e+03 
645.927  1.47200000e+03 
645.891  1.48700000e+03 
645.855  1.42400000e+03 
645.819  1.42800000e+03 
645.783  1.46200000e+03 
645.747  1.50500000e+03 
645.711  1.50200000e+03 
645.676  1.51300000e+03 
645.640  1.47900000e+03 
645.604  1.45100000e+03 
645.568  1.49400000e+03 
645.532  1.45200000e+03 
645.496  1.47500000e+03 
645.460  1.46400000e+03 
645.424  1.54800000e+03 
645.388  1.50600000e+03 
645.352  1.48800000e+03 
645.316  1.52200000e+03 
645.280  1.52200000e+03 
645.245  1.49000000e+03 
645.209  1.49300000e+03 
645.173  1.52400000e+03 
645.137  1.56600000e+03 
645.101  1.57800000e+03 
645.065  1.52900000e+03 
645.029  1.57500000e+03 
644.993  1.60100000e+03 
644.957  1.60200000e+03 
644.921  1.55400000e+03 
644.885  1.63300000e+03 
644.850  1.60300000e+03 
644.814  1.60100000e+03 
644.778  1.60000000e+03 
644.742  1.58400000e+03 
644.706  1.62700000e+03 
644.670  1.61600000e+03 
644.634  1.69300000e+03 
644.598  1.68100000e+03 
644.562  1.67400000e+03 
644.526  1.64200000e+03 
644.490  1.65700000e+03 
644.454  1.73300000e+03 
644.419  1.57700000e+03 
644.383  1.72000000e+03 
644.347  1.75100000e+03 
644.311  1.72000000e+03 
644.275  1.74500000e+03 
644.239  1.76600000e+03 
644.203  1.79400000e+03 
644.167  1.79400000e+03 
644.131  1.74900000e+03 
644.095  1.78500000e+03 
644.059  1.82700000e+03 
644.024  1.78400000e+03 
643.988  1.79600000e+03 
643.952  1.77500000e+03 
643.916  1.83600000e+03 
643.880  1.79700000e+03 
643.844  1.90700000e+03 
643.808  1.82800000e+03 
643.772  1.90100000e+03 
643.736  1.87400000e+03 
643.700  1.90900000e+03 
643.664  1.88000000e+03 
643.628  1.84600000e+03 
643.593  1.89800000e+03 
643.557  1.97400000e+03 
643.521  1.82400000e+03 
643.485  1.99800000e+03 
643.449  1.97800000e+03 
643.413  1.95600000e+03 
643.377  1.99800000e+03 
643.341  2.00000000e+03 
643.305  1.97100000e+03 
643.269  1.99800000e+03 
643.233  2.00700000e+03 
643.198  1.99700000e+03 
643.162  1.95300000e+03 
643.126  2.00900000e+03 
643.090  2.00900000e+03 
643.054  2.04100000e+03 
643.018  2.02000000e+03 
642.982  2.09800000e+03 
642.946  2.06500000e+03 
642.910  1.99200000e+03 
642.874  2.03900000e+03 
642.838  2.07300000e+03 
642.802  2.04200000e+03 
642.767  2.02500000e+03 
642.731  2.05700000e+03 
642.695  2.14700000e+03 
642.659  2.11800000e+03 
642.623  2.14600000e+03 
642.587  2.04200000e+03 
642.551  2.05500000e+03 
642.515  2.07500000e+03 
642.479  2.13900000e+03 
642.443  2.13200000e+03 
642.407  2.13000000e+03 
642.372  2.13900000e+03 
642.336  1.98800000e+03 
642.300  2.13500000e+03 
642.264  2.15000000e+03 
642.228  2.01400000e+03 
642.192  2.05900000e+03 
642.156  2.04900000e+03 
642.120  1.92900000e+03 
642.084  2.12700000e+03 
642.048  2.05100000e+03 
642.012  1.98400000e+03 
641.976  2.01400000e+03 
641.941  2.01500000e+03 
641.905  1.99300000e+03 
641.869  2.00200000e+03 
641.833  1.95200000e+03 
641.797  1.91400000e+03 
641.761  1.92700000e+03 
641.725  1.93200000e+03 
641.689  1.97500000e+03 
641.653  1.88900000e+03 
641.617  1.90500000e+03 
641.581  1.87300000e+03 
641.546  1.86000000e+03 
641.510  1.93600000e+03 
641.474  1.81800000e+03 
641.438  1.82000000e+03 
641.402  1.82900000e+03 
641.366  1.72600000e+03 
641.330  1.80400000e+03 
641.294  1.75500000e+03 
641.258  1.72900000e+03 
641.222  1.77500000e+03 
641.186  1.66500000e+03 
641.150  1.61100000e+03 
641.115  1.74900000e+03 
641.079  1.66100000e+03 
641.043  1.65400000e+03 
641.007  1.67500000e+03 
640.971  1.63000000e+03 
640.935  1.53600000e+03 
640.899  1.54700000e+03 
640.863  1.49300000e+03 
640.827  1.49000000e+03 
640.791  1.45200000e+03 
640.755  1.47500000e+03 
640.720  1.44400000e+03 
640.684  1.39800000e+03 
640.648  1.42600000e+03 
640.612  1.36200000e+03 
640.576  1.35200000e+03 
640.540  1.36500000e+03 
640.504  1.34100000e+03 
640.468  1.27000000e+03 
640.432  1.24500000e+03 
640.396  1.24800000e+03 
640.360  1.22300000e+03 
640.324  1.20900000e+03 
640.289  1.21900000e+03 
640.253  1.19000000e+03 
640.217  1.14800000e+03 
640.181  1.14500000e+03 
640.145  1.18300000e+03 
640.109  1.19800000e+03 
640.073  1.17400000e+03 
640.037  1.10600000e+03 
640.001  1.13800000e+03 
639.965  1.11800000e+03 
639.929  1.13500000e+03 
639.894  1.08200000e+03 
639.858  1.10500000e+03 
639.822  1.07700000e+03 
639.786  1.10300000e+03 
639.750  1.08000000e+03 
639.714  1.06200000e+03 
639.678  1.01700000e+03 
639.642  1.06100000e+03 
639.606  1.08900000e+03 
639.570  1.03000000e+03 
639.534  1.07700000e+03 
639.498  1.09400000e+03 
639.463  1.02100000e+03 
639.427  9.53000000e+02 
639.391  1.03000000e+03 
639.355  1.04000000e+03 
639.319  1.05700000e+03 
639.283  1.07000000e+03 
639.247  1.00600000e+03 
639.211  9.84000000e+02 
639.175  1.00100000e+03 
639.139  1.02100000e+03 
639.103  1.00600000e+03 
639.068  1.06600000e+03 
639.032  1.03700000e+03 
638.996  1.04500000e+03 
638.960  9.88000000e+02 
638.924  1.07600000e+03 
638.888  1.02600000e+03 
638.852  1.04400000e+03 
638.816  1.00100000e+03 
638.780  1.03900000e+03 
638.744  9.89000000e+02 
638.708  1.01000000e+03 
638.672  1.02600000e+03 
638.637  9.66000000e+02 
638.601  9.95000000e+02 
638.565  9.95000000e+02 
638.529  9.86000000e+02 
638.493  9.74000000e+02 
638.457  1.01300000e+03 
638.421  1.05100000e+03 
638.385  1.00700000e+03 
638.349  1.05500000e+03 
638.313  9.85000000e+02 
638.277  1.01400000e+03 
638.242  1.05300000e+03 
638.206  1.02800000e+03 
638.170  9.98000000e+02 
638.134  9.89000000e+02 
638.098  1.01500000e+03 
638.062  1.01500000e+03 
638.026  1.02600000e+03 
637.990  1.00500000e+03 
637.954  9.77000000e+02 
637.918  1.00700000e+03 
637.882  9.79000000e+02 
637.847  1.00800000e+03 
637.811  1.01000000e+03 
637.775  1.02400000e+03 
637.739  1.04200000e+03 
637.703  9.71000000e+02 
637.667  1.01100000e+03 
637.631  9.79000000e+02 
637.595  1.02900000e+03 
637.559  1.03600000e+03 
637.523  1.06100000e+03 
637.487  9.99000000e+02 
637.451  1.00800000e+03 
637.416  9.98000000e+02 
637.380  1.01600000e+03 
637.344  1.01900000e+03 
637.308  1.01500000e+03 
637.272  9.57000000e+02 
637.236  1.02300000e+03 
637.200  1.02100000e+03 
637.164  9.68000000e+02 
637.128  9.78000000e+02 
637.092  9.88000000e+02 
637.056  9.79000000e+02 
637.021  9.92000000e+02 
[ Region 14 Curve ]
BEcenter= 643.000 
BEwidth= -11.959 
Excitation= 1486.600
Time_p_channel= 256.000 
Size= 334
648.979  1.40400000e+03 
648.944  1.44500000e+03 
648.908  1.42000000e+03 
648.872  1.46800000e+03 
648.836  1.47000000e+03 
648.800  1.46500000e+03 
648.764  1.43200000e+03 
648.728  1.50000000e+03 
648.692  1.41400000e+03 
648.656  1.47600000e+03 
648.620  1.41900000e+03 
648.584  1.49500000e+03 
648.549  1.44900000e+03 
648.513  1.37000000e+03 
648.477  1.47700000e+03 
648.441  1.41200000e+03 
648.405  1.52500000e+03 
648.369  1.41300000e+03 
648.333  1.46200000e+03 
648.297  1.42000000e+03 
648.261  1.41300000e+03 
648.225  1.44500000e+03 
648.189  1.46500000e+03 
648.153  1.50700000e+03 
648.118  1.41600000e+03 
648.082  1.42800000e+03 
648.046  1.48900000e+03 
648.010  1.45400000e+03 
647.974  1.43300000e+03 
647.938  1.46500000e+03 
647.902  1.49200000e+03 
647.866  1.53000000e+03 
647.830  1.49400000e+03 
647.794  1.50500000e+03 
647.758  1.43900000e+03 
647.723  1.49600000e+03 
647.687  1.45700000e+03 
647.651  1.40600000e+03 
647.615  1.48700000e+03 
647.579  1.37300000e+03 
647.543  1.42900000e+03 
647.507  1.44000000e+03 
647.471  1.51600000e+03 
647.435  1.44600000e+03 
647.399  1.51800000e+03 
647.363  1.45100000e+03 
647.328  1.50400000e+03 
647.292  1.41500000e+03 
647.256  1.44400000e+03 
647.220  1.44300000e+03 
647.184  1.42500000e+03 
647.148  1.47900000e+03 
647.112  1.53700000e+03 
647.076  1.44900000e+03 
647.040  1.49000000e+03 
647.004  1.48500000e+03 
646.968  1.39600000e+03 
646.932  1.50600000e+03 
646.897  1.44200000e+03 
646.861  1.43400000e+03 
646.825  1.46500000e+03 
646.789  1.49600000e+03 
646.753  1.39300000e+03 
646.717  1.50600000e+03 
646.681  1.45700000e+03 
646.645  1.47900000e+03 
646.609  1.47200000e+03 
646.573  1.44100000e+03 
646.537  1.48200000e+03 
646.502  1.50700000e+03 
646.466  1.50800000e+03 
646.430  1.51500000e+03 
646.394  1.51200000e+03 
646.358  1.46100000e+03 
646.322  1.47000000e+03 
646.286  1.48700000e+03 
646.250  1.51500000e+03 
646.214  1.53200000e+03 
646.178  1.52700000e+03 
646.142  1.52500000e+03 
646.106  1.45500000e+03 
646.071  1.45600000e+03 
646.035  1.55000000e+03 
645.999  1.53500000e+03 
645.963  1.49000000e+03 
645.927  1.51300000e+03 
645.891  1.56000000e+03 
645.855  1.58700000e+03 
645.819  1.57200000e+03 
645.783  1.47700000e+03 
645.747  1.52400000e+03 
645.711  1.50000000e+03 
645.676  1.51900000e+03 
645.640  1.47900000e+03 
645.604  1.57900000e+03 
645.568  1.55000000e+03 
645.532  1.50400000e+03 
645.496  1.56200000e+03 
645.460  1.56000000e+03 
645.424  1.58000000e+03 
645.388  1.54700000e+03 
645.352  1.52400000e+03 
645.316  1.54100000e+03 
645.280  1.57700000e+03 
645.245  1.56600000e+03 
645.209  1.59400000e+03 
645.173  1.62900000e+03 
645.137  1.64500000e+03 
645.101  1.55600000e+03 
645.065  1.67600000e+03 
645.029  1.64000000e+03 
644.993  1.63400000e+03 
644.957  1.61400000e+03 
644.921  1.60000000e+03 
644.885  1.65300000e+03 
644.850  1.62800000e+03 
644.814  1.74800000e+03 
644.778  1.66900000e+03 
644.742  1.60700000e+03 
644.706  1.67300000e+03 
644.670  1.73400000e+03 
644.634  1.76500000e+03 
644.598  1.72400000e+03 
644.562  1.77800000e+03 
644.526  1.69400000e+03 
644.490  1.82300000e+03 
644.454  1.73900000e+03 
644.419  1.82500000e+03 
644.383  1.86500000e+03 
644.347  1.86600000e+03 
644.311  1.76200000e+03 
644.275  1.76000000e+03 
644.239  1.82400000e+03 
644.203  1.80300000e+03 
644.167  1.89500000e+03 
644.131  1.85200000e+03 
644.095  1.87300000e+03 
644.059  1.80100000e+03 
644.024  1.87800000e+03 
643.988  1.93700000e+03 
643.952  1.87300000e+03 
643.916  1.88300000e+03 
643.880  1.91400000e+03 
643.844  1.93500000e+03 
643.808  1.98600000e+03 
643.772  1.92100000e+03 
643.736  1.97600000e+03 
643.700  2.02200000e+03 
643.664  2.01100000e+03 
643.628  1.93900000e+03 
643.593  2.04400000e+03 
643.557  1.92600000e+03 
643.521  1.99400000e+03 
643.485  2.15000000e+03 
643.449  2.02800000e+03 
643.413  2.07300000e+03 
643.377  2.07800000e+03 
643.341  2.09600000e+03 
643.305  2.06200000e+03 
643.269  2.00300000e+03 
643.233  2.07400000e+03 
643.198  2.16600000e+03 
643.162  2.03100000e+03 
643.126  2.18800000e+03 
643.090  2.16800000e+03 
643.054  2.15800000e+03 
643.018  2.18200000e+03 
642.982  2.19200000e+03 
642.946  2.08900000e+03 
642.910  2.19600000e+03 
642.874  2.15100000e+03 
642.838  2.08400000e+03 
642.802  2.22100000e+03 
642.767  2.15900000e+03 
642.731  2.11500000e+03 
642.695  2.18800000e+03 
642.659  2.11400000e+03 
642.623  2.20800000e+03 
642.587  2.15100000e+03 
642.551  2.15100000e+03 
642.515  2.16600000e+03 
642.479  2.21300000e+03 
642.443  2.25700000e+03 
642.407  2.24300000e+03 
642.372  2.11500000e+03 
642.336  2.12300000e+03 
642.300  2.13900000e+03 
642.264  2.15600000e+03 
642.228  2.20900000e+03 
642.192  2.20400000e+03 
642.156  2.16800000e+03 
642.120  2.18500000e+03 
642.084  2.13800000e+03 
642.048  2.10800000e+03 
642.012  2.09300000e+03 
641.976  2.05900000e+03 
641.941  2.09400000e+03 
641.905  2.11300000e+03 
641.869  2.11900000e+03 
641.833  2.00500000e+03 
641.797  2.02500000e+03 
641.761  2.01100000e+03 
641.725  2.05300000e+03 
641.689  2.08000000e+03 
641.653  2.02200000e+03 
641.617  2.02900000e+03 
641.581  1.99600000e+03 
641.546  1.91100000e+03 
641.510  2.05500000e+03 
641.474  1.93400000e+03 
641.438  1.93100000e+03 
641.402  1.95200000e+03 
641.366  1.88300000e+03 
641.330  1.84200000e+03 
641.294  1.81900000e+03 
641.258  1.81300000e+03 
641.222  1.80400000e+03 
641.186  1.83100000e+03 
641.150  1.74000000e+03 
641.115  1.81400000e+03 
641.079  1.66000000e+03 
641.043  1.68300000e+03 
641.007  1.65200000e+03 
640.971  1.68400000e+03 
640.935  1.59900000e+03 
640.899  1.73100000e+03 
640.863  1.59200000e+03 
640.827  1.58600000e+03 
640.791  1.57000000e+03 
640.755  1.61300000e+03 
640.720  1.54300000e+03 
640.684  1.50100000e+03 
640.648  1.52200000e+03 
640.612  1.50200000e+03 
640.576  1.39600000e+03 
640.540  1.45600000e+03 
640.504  1.32100000e+03 
640.468  1.31100000e+03 
640.432  1.32500000e+03 
640.396  1.29100000e+03 
640.360  1.34100000e+03 
640.324  1.32100000e+03 
640.289  1.26000000e+03 
640.253  1.34900000e+03 
640.217  1.35900000e+03 
640.181  1.25300000e+03 
640.145  1.19600000e+03 
640.109  1.23200000e+03 
640.073  1.18800000e+03 
640.037  1.18900000e+03 
640.001  1.18800000e+03 
639.965  1.11300000e+03 
639.929  1.13400000e+03 
639.894  1.05800000e+03 
639.858  1.20900000e+03 
639.822  1.09900000e+03 
639.786  1.06300000e+03 
639.750  1.09900000e+03 
639.714  1.07900000e+03 
639.678  1.06000000e+03 
639.642  1.07200000e+03 
639.606  1.07600000e+03 
639.570  1.12200000e+03 
639.534  1.10800000e+03 
639.498  1.13600000e+03 
639.463  1.04400000e+03 
639.427  1.11900000e+03 
639.391  1.07500000e+03 
639.355  1.07900000e+03 
639.319  9.96000000e+02 
639.283  1.03500000e+03 
639.247  1.05300000e+03 
639.211  1.01100000e+03 
639.175  1.13400000e+03 
639.139  1.03100000e+03 
639.103  1.05800000e+03 
639.068  1.06800000e+03 
639.032  1.10600000e+03 
638.996  1.07000000e+03 
638.960  1.00600000e+03 
638.924  1.02700000e+03 
638.888  1.10600000e+03 
638.852  1.03900000e+03 
638.816  1.07000000e+03 
638.780  1.04100000e+03 
638.744  1.07100000e+03 
638.708  1.04100000e+03 
638.672  1.05700000e+03 
638.637  1.01400000e+03 
638.601  1.03800000e+03 
638.565  1.02600000e+03 
638.529  1.05500000e+03 
638.493  1.04600000e+03 
638.457  1.02800000e+03 
638.421  1.06200000e+03 
638.385  1.07000000e+03 
638.349  1.04300000e+03 
638.313  1.00500000e+03 
638.277  1.08400000e+03 
638.242  1.10700000e+03 
638.206  1.05000000e+03 
638.170  1.08800000e+03 
638.134  1.06500000e+03 
638.098  1.05200000e+03 
638.062  1.00700000e+03 
638.026  1.03700000e+03 
637.990  1.04300000e+03 
637.954  1.03000000e+03 
637.918  1.07900000e+03 
637.882  9.76000000e+02 
637.847  1.06600000e+03 
637.811  1.04700000e+03 
637.775  1.01200000e+03 
637.739  1.02400000e+03 
637.703  1.07000000e+03 
637.667  1.02100000e+03 
637.631  9.86000000e+02 
637.595  1.00600000e+03 
637.559  1.15700000e+03 
637.523  1.03700000e+03 
637.487  9.86000000e+02 
637.451  1.11200000e+03 
637.416  1.06600000e+03 
637.380  1.05300000e+03 
637.344  1.06900000e+03 
637.308  1.00600000e+03 
637.272  1.06300000e+03 
637.236  1.03400000e+03 
637.200  9.99000000e+02 
637.164  1.01000000e+03 
637.128  1.01700000e+03 
637.092  9.84000000e+02 
637.056  1.03900000e+03 
637.021  1.02400000e+03 
[ Region 15 Curve ]
BEcenter= 643.000 
BEwidth= -11.959 
Excitation= 1486.600
Time_p_channel= 256.000 
Size= 334
648.979  1.51800000e+03 
648.944  1.50100000e+03 
648.908  1.44800000e+03 
648.872  1.59000000e+03 
648.836  1.46000000e+03 
648.800  1.50500000e+03 
648.764  1.54700000e+03 
648.728  1.50000000e+03 
648.692  1.53600000e+03 
648.656  1.52000000e+03 
648.620  1.48500000e+03 
648.584  1.53100000e+03 
648.549  1.52300000e+03 
648.513  1.47500000e+03 
648.477  1.54800000e+03 
648.441  1.59200000e+03 
648.405  1.49500000e+03 
648.369  1.54700000e+03 
648.333  1.54100000e+03 
648.297  1.49000000e+03 
648.261  1.42700000e+03 
648.225  1.58700000e+03 
648.189  1.53800000e+03 
648.153  1.54500000e+03 
648.118  1.50300000e+03 
648.082  1.54300000e+03 
648.046  1.53100000e+03 
648.010  1.51900000e+03 
647.974  1.57200000e+03 
647.938  1.52300000e+03 
647.902  1.56700000e+03 
647.866  1.58100000e+03 
647.830  1.52800000e+03 
647.794  1.53600000e+03 
647.758  1.56500000e+03 
647.723  1.49600000e+03 
647.687  1.49300000e+03 
647.651  1.58100000e+03 
647.615  1.59200000e+03 
647.579  1.47100000e+03 
647.543  1.59000000e+03 
647.507  1.49600000e+03 
647.471  1.55200000e+03 
647.435  1.59300000e+03 
647.399  1.48900000e+03 
647.363  1.52100000e+03 
647.328  1.59900000e+03 
647.292  1.49400000e+03 
647.256  1.56200000e+03 
647.220  1.50700000e+03 
647.184  1.45700000e+03 
647.148  1.55600000e+03 
647.112  1.59000000e+03 
647.076  1.43300000e+03 
647.040  1.51300000e+03 
647.004  1.54500000e+03 
646.968  1.47000000e+03 
646.932  1.53000000e+03 
646.897  1.59300000e+03 
646.861  1.55300000e+03 
646.825  1.54000000e+03 
646.789  1.59100000e+03 
646.753  1.49200000e+03 
646.717  1.51600000e+03 
646.681  1.48800000e+03 
646.645  1.60800000e+03 
646.609  1.51800000e+03 
646.573  1.55300000e+03 
646.537  1.57200000e+03 
646.502  1.55100000e+03 
646.466  1.53100000e+03 
646.430  1.52400000e+03 
646.394  1.51400000e+03 
646.358  1.53100000e+03 
646.322  1.54900000e+03 
646.286  1.59200000e+03 
646.250  1.50300000e+03 
646.214  1.51000000e+03 
646.178  1.54800000e+03 
646.142  1.61400000e+03 
646.106  1.56900000e+03 
646.071  1.54300000e+03 
646.035  1.56600000e+03 
645.999  1.64200000e+03 
645.963  1.50600000e+03 
645.927  1.60800000e+03 
645.891  1.55600000e+03 
645.855  1.59900000e+03 
645.819  1.49300000e+03 
645.783  1.59900000e+03 
645.747  1.58400000e+03 
645.711  1.54600000e+03 
645.676  1.66500000e+03 
645.640  1.66300000e+03 
645.604  1.64100000e+03 
645.568  1.63300000e+03 
645.532  1.59900000e+03 
645.496  1.62400000e+03 
645.460  1.65500000e+03 
645.424  1.66400000e+03 
645.388  1.68300000e+03 
645.352  1.72200000e+03 
645.316  1.67500000e+03 
645.280  1.69200000e+03 
645.245  1.70000000e+03 
645.209  1.65300000e+03 
645.173  1.71600000e+03 
645.137  1.65700000e+03 
645.101  1.64000000e+03 
645.065  1.74500000e+03 
645.029  1.67300000e+03 
644.993  1.76200000e+03 
644.957  1.75100000e+03 
644.921  1.72600000e+03 
644.885  1.79700000e+03 
644.850  1.73100000e+03 
644.814  1.77400000e+03 
644.778  1.79800000e+03 
644.742  1.82600000e+03 
644.706  1.81000000e+03 
644.670  1.79400000e+03 
644.634  1.82200000e+03 
644.598  1.85400000e+03 
644.562  1.85600000e+03 
644.526  1.85500000e+03 
644.490  1.80700000e+03 
644.454  1.82900000e+03 
644.419  1.90600000e+03 
644.383  1.90900000e+03 
644.347  1.82200000e+03 
644.311  1.91000000e+03 
644.275  1.93100000e+03 
644.239  1.95500000e+03 
644.203  1.94700000e+03 
644.167  1.94400000e+03 
644.131  2.00000000e+03 
644.095  1.96800000e+03 
644.059  1.95300000e+03 
644.024  2.00400000e+03 
643.988  2.01400000e+03 
643.952  1.93100000e+03 
643.916  2.05800000e+03 
643.880  2.08400000e+03 
643.844  2.09300000e+03 
643.808  2.09200000e+03 
643.772  2.06300000e+03 
643.736  2.17200000e+03 
643.700  2.16900000e+03 
643.664  2.13700000e+03 
643.628  2.07100000e+03 
643.593  2.20500000e+03 
643.557  2.11200000e+03 
643.521  2.12900000e+03 
643.485  2.18100000e+03 
643.449  2.20700000e+03 
643.413  2.18900000e+03 
643.377  2.23900000e+03 
643.341  2.23000000e+03 
643.305  2.22200000e+03 
643.269  2.29800000e+03 
643.233  2.16500000e+03 
643.198  2.19500000e+03 
643.162  2.26600000e+03 
643.126  2.27800000e+03 
643.090  2.29200000e+03 
643.054  2.33500000e+03 
643.018  2.29000000e+03 
642.982  2.21700000e+03 
642.946  2.24700000e+03 
642.910  2.35500000e+03 
642.874  2.34300000e+03 
642.838  2.24800000e+03 
642.802  2.31700000e+03 
642.767  2.26100000e+03 
642.731  2.28500000e+03 
642.695  2.41000000e+03 
642.659  2.35000000e+03 
642.623  2.24100000e+03 
642.587  2.33200000e+03 
642.551  2.38100000e+03 
642.515  2.34300000e+03 
642.479  2.24200000e+03 
642.443  2.37200000e+03 
642.407  2.27200000e+03 
642.372  2.39500000e+03 
642.336  2.31400000e+03 
642.300  2.28300000e+03 
642.264  2.38800000e+03 
642.228  2.31600000e+03 
642.192  2.30900000e+03 
642.156  2.23200000e+03 
642.120  2.36500000e+03 
642.084  2.25800000e+03 
642.048  2.26100000e+03 
642.012  2.17600000e+03 
641.976  2.15800000e+03 
641.941  2.27100000e+03 
641.905  2.18100000e+03 
641.869  2.19300000e+03 
641.833  2.20100000e+03 
641.797  2.10900000e+03 
641.761  2.16600000e+03 
641.725  2.19800000e+03 
641.689  2.17600000e+03 
641.653  2.13500000e+03 
641.617  2.14900000e+03 
641.581  2.11900000e+03 
641.546  2.12600000e+03 
641.510  1.96800000e+03 
641.474  2.03800000e+03 
641.438  2.10400000e+03 
641.402  1.91500000e+03 
641.366  1.97800000e+03 
641.330  1.86300000e+03 
641.294  1.97000000e+03 
641.258  1.91300000e+03 
641.222  1.88100000e+03 
641.186  1.85500000e+03 
641.150  1.84700000e+03 
641.115  1.84300000e+03 
641.079  1.86300000e+03 
641.043  1.74100000e+03 
641.007  1.73100000e+03 
640.971  1.77600000e+03 
640.935  1.75200000e+03 
640.899  1.69400000e+03 
640.863  1.66300000e+03 
640.827  1.63400000e+03 
640.791  1.71500000e+03 
640.755  1.54500000e+03 
640.720  1.55800000e+03 
640.684  1.56300000e+03 
640.648  1.51900000e+03 
640.612  1.52100000e+03 
640.576  1.50100000e+03 
640.540  1.44200000e+03 
640.504  1.46900000e+03 
640.468  1.46500000e+03 
640.432  1.42800000e+03 
640.396  1.43400000e+03 
640.360  1.43700000e+03 
640.324  1.42300000e+03 
640.289  1.32800000e+03 
640.253  1.33500000e+03 
640.217  1.31500000e+03 
640.181  1.26700000e+03 
640.145  1.30700000e+03 
640.109  1.23400000e+03 
640.073  1.25300000e+03 
640.037  1.24500000e+03 
640.001  1.25200000e+03 
639.965  1.26300000e+03 
639.929  1.19300000e+03 
639.894  1.25500000e+03 
639.858  1.16500000e+03 
639.822  1.21100000e+03 
639.786  1.13300000e+03 
639.750  1.17300000e+03 
639.714  1.13100000e+03 
639.678  1.18300000e+03 
639.642  1.17700000e+03 
639.606  1.20900000e+03 
639.570  1.11500000e+03 
639.534  1.14100000e+03 
639.498  1.21300000e+03 
639.463  1.12100000e+03 
639.427  1.13800000e+03 
639.391  1.16200000e+03 
639.355  1.06600000e+03 
639.319  1.15600000e+03 
639.283  1.13700000e+03 
639.247  1.09600000e+03 
639.211  1.17300000e+03 
639.175  1.11100000e+03 
639.139  1.12300000e+03 
639.103  1.12400000e+03 
639.068  1.05600000e+03 
639.032  1.16600000e+03 
638.996  1.12600000e+03 
638.960  1.12100000e+03 
638.924  1.08800000e+03 
638.888  1.10100000e+03 
638.852  1.03900000e+03 
638.816  1.11000000e+03 
638.780  1.06700000e+03 
638.744  1.09700000e+03 
638.708  1.08900000e+03 
638.672  1.10900000e+03 
638.637  1.09100000e+03 
638.601  1.04600000e+03 
638.565  1.13200000e+03 
638.529  1.18500000e+03 
638.493  1.09200000e+03 
638.457  1.02200000e+03 
638.421  1.10600000e+03 
638.385  1.14000000e+03 
638.349  1.08800000e+03 
638.313  1.13900000e+03 
638.277  1.07700000e+03 
638.242  1.07300000e+03 
638.206  1.07800000e+03 
638.170  1.10600000e+03 
638.134  1.09900000e+03 
638.098  1.10200000e+03 
638.062  1.16800000e+03 
638.026  1.11100000e+03 
637.990  1.08900000e+03 
637.954  1.07300000e+03 
637.918  1.09000000e+03 
637.882  1.04800000e+03 
637.847  1.06800000e+03 
637.811  9.94000000e+02 
637.775  1.07200000e+03 
637.739  1.08700000e+03 
637.703  1.05700000e+03 
637.667  1.10300000e+03 
637.631  1.07600000e+03 
637.595  1.07800000e+03 
637.559  1.09600000e+03 
637.523  1.05300000e+03 
637.487  1.10900000e+03 
637.451  1.12500000e+03 
637.416  1.07600000e+03 
637.380  1.03600000e+03 
637.344  1.11000000e+03 
637.308  1.05900000e+03 
637.272  1.09800000e+03 
637.236  1.05900000e+03 
637.200  1.09600000e+03 
637.164  1.16200000e+03 
637.128  1.05500000e+03 
637.092  1.10000000e+03 
637.056  1.08300000e+03 
637.021  1.07600000e+03 
[ Region 16 Curve ]
BEcenter= 643.000 
BEwidth= -11.959 
Excitation= 1486.600
Time_p_channel= 256.000 
Size= 334
648.979  1.59500000e+03 
648.944  1.55700000e+03 
648.908  1.60500000e+03 
648.872  1.56500000e+03 
648.836  1.53100000e+03 
648.800  1.58400000e+03 
648.764  1.53400000e+03 
648.728  1.63400000e+03 
648.692  1.58900000e+03 
648.656  1.53200000e+03 
648.620  1.58300000e+03 
648.584  1.60100000e+03 
648.549  1.60200000e+03 
648.513  1.58400000e+03 
648.477  1.57500000e+03 
648.441  1.54700000e+03 
648.405  1.57100000e+03 
648.369  1.60900000e+03 
648.333  1.60500000e+03 
648.297  1.57900000e+03 
648.261  1.68600000e+03 
648.225  1.60500000e+03 
648.189  1.54300000e+03 
648.153  1.59900000e+03 
648.118  1.65600000e+03 
648.082  1.61000000e+03 
648.046  1.56000000e+03 
648.010  1.61200000e+03 
647.974  1.59600000e+03 
647.938  1.62000000e+03 
647.902  1.63000000e+03 
647.866  1.57500000e+03 
647.830  1.58400000e+03 
647.794  1.59900000e+03 
647.758  1.71500000e+03 
647.723  1.61100000e+03 
647.687  1.68100000e+03 
647.651  1.58300000e+03 
647.615  1.58500000e+03 
647.579  1.58600000e+03 
647.543  1.57600000e+03 
647.507  1.61700000e+03 
647.471  1.54500000e+03 
647.435  1.54900000e+03 
647.399  1.65400000e+03 
647.363  1.60700000e+03 
647.328  1.57800000e+03 
647.292  1.68500000e+03 
647.256  1.63200000e+03 
647.220  1.58200000e+03 
647.184  1.59600000e+03 
647.148  1.54700000e+03 
647.112  1.58300000e+03 
647.076  1.61700000e+03 
647.040  1.68400000e+03 
647.004  1.69000000e+03 
646.968  1.70100000e+03 
646.932  1.55100000e+03 
646.897  1.59400000e+03 
646.861  1.60400000e+03 
646.825  1.58800000e+03 
646.789  1.64200000e+03 
646.753  1.61400000e+03 
646.717  1.59100000e+03 
646.681  1.57700000e+03 
646.645  1.58000000e+03 
646.609  1.61600000e+03 
646.573  1.53000000e+03 
646.537  1.57400000e+03 
646.502  1.65100000e+03 
646.466  1.64400000e+03 
646.430  1.71900000e+03 
646.394  1.62800000e+03 
646.358  1.61800000e+03 
646.322  1.64100000e+03 
646.286  1.62400000e+03 
646.250  1.69500000e+03 
646.214  1.64400000e+03 
646.178  1.65700000e+03 
646.142  1.66600000e+03 
646.106  1.64100000e+03 
646.071  1.67900000e+03 
646.035  1.66700000e+03 
645.999  1.65700000e+03 
645.963  1.69900000e+03 
645.927  1.69700000e+03 
645.891  1.63700000e+03 
645.855  1.65100000e+03 
645.819  1.76600000e+03 
645.783  1.62000000e+03 
645.747  1.70500000e+03 
645.711  1.76200000e+03 
645.676  1.70200000e+03 
645.640  1.73300000e+03 
645.604  1.74200000e+03 
645.568  1.65600000e+03 
645.532  1.74000000e+03 
645.496  1.73500000e+03 
645.460  1.68400000e+03 
645.424  1.76300000e+03 
645.388  1.67500000e+03 
645.352  1.78200000e+03 
645.316  1.76500000e+03 
645.280  1.78700000e+03 
645.245  1.76100000e+03 
645.209  1.79600000e+03 
645.173  1.85700000e+03 
645.137  1.73600000e+03 
645.101  1.79300000e+03 
645.065  1.79400000e+03 
645.029  1.80600000e+03 
644.993  1.75000000e+03 
644.957  1.79900000e+03 
644.921  1.84000000e+03 
644.885  1.81300000e+03 
644.850  1.86500000e+03 
644.814  1.86100000e+03 
644.778  2.00800000e+03 
644.742  1.90400000e+03 
644.706  1.89400000e+03 
644.670  1.83500000e+03 
644.634  1.90000000e+03 
644.598  1.94700000e+03 
644.562  1.86000000e+03 
644.526  1.83900000e+03 
644.490  1.94000000e+03 
644.454  1.93500000e+03 
644.419  1.89600000e+03 
644.383  2.04900000e+03 
644.347  1.94900000e+03 
644.311  1.88800000e+03 
644.275  2.09100000e+03 
644.239  2.02200000e+03 
644.203  2.05900000e+03 
644.167  2.05900000e+03 
644.131  2.16000000e+03 
644.095  2.06300000e+03 
644.059  2.09200000e+03 
644.024  2.09700000e+03 
643.988  2.03000000e+03 
643.952  2.13300000e+03 
643.916  2.12900000e+03 
643.880  2.20400000e+03 
643.844  2.17300000e+03 
643.808  2.10900000e+03 
643.772  2.19700000e+03 
643.736  2.22600000e+03 
643.700  2.17500000e+03 
643.664  2.24400000e+03 
643.628  2.22800000e+03 
643.593  2.20400000e+03 
643.557  2.27900000e+03 
643.521  2.26800000e+03 
643.485  2.30500000e+03 
643.449  2.24200000e+03 
643.413  2.26200000e+03 
643.377  2.39400000e+03 
643.341  2.34500000e+03 
643.305  2.32800000e+03 
643.269  2.30700000e+03 
643.233  2.34900000e+03 
643.198  2.31100000e+03 
643.162  2.36500000e+03 
643.126  2.38300000e+03 
643.090  2.52600000e+03 
643.054  2.34400000e+03 
643.018  2.29300000e+03 
642.982  2.36500000e+03 
642.946  2.42900000e+03 
642.910  2.40700000e+03 
642.874  2.43800000e+03 
642.838  2.48300000e+03 
642.802  2.50800000e+03 
642.767  2.41600000e+03 
642.731  2.36800000e+03 
642.695  2.48500000e+03 
642.659  2.48400000e+03 
642.623  2.46200000e+03 
642.587  2.46400000e+03 
642.551  2.50400000e+03 
642.515  2.41600000e+03 
642.479  2.46000000e+03 
642.443  2.40900000e+03 
642.407  2.44500000e+03 
642.372  2.36100000e+03 
642.336  2.41700000e+03 
642.300  2.42200000e+03 
642.264  2.42500000e+03 
642.228  2.34300000e+03 
642.192  2.38400000e+03 
642.156  2.39200000e+03 
642.120  2.35900000e+03 
642.084  2.34700000e+03 
642.048  2.33700000e+03 
642.012  2.41200000e+03 
641.976  2.40500000e+03 
641.941  2.38900000e+03 
641.905  2.35100000e+03 
641.869  2.26100000e+03 
641.833  2.32900000e+03 
641.797  2.26600000e+03 
641.761  2.28800000e+03 
641.725  2.19600000e+03 
641.689  2.25700000e+03 
641.653  2.28100000e+03 
641.617  2.15300000e+03 
641.581  2.13500000e+03 
641.546  2.17000000e+03 
641.510  2.10800000e+03 
641.474  2.14100000e+03 
641.438  2.02400000e+03 
641.402  2.02600000e+03 
641.366  2.00800000e+03 
641.330  1.97300000e+03 
641.294  2.00300000e+03 
641.258  1.94700000e+03 
641.222  1.90300000e+03 
641.186  1.95400000e+03 
641.150  1.92800000e+03 
641.115  1.84200000e+03 
641.079  1.82600000e+03 
641.043  1.84600000e+03 
641.007  1.82700000e+03 
640.971  1.78400000e+03 
640.935  1.74900000e+03 
640.899  1.74500000e+03 
640.863  1.65300000e+03 
640.827  1.76600000e+03 
640.791  1.75400000e+03 
640.755  1.62100000e+03 
640.720  1.64900000e+03 
640.684  1.62400000e+03 
640.648  1.57100000e+03 
640.612  1.54600000e+03 
640.576  1.51700000e+03 
640.540  1.49000000e+03 
640.504  1.45700000e+03 
640.468  1.42100000e+03 
640.432  1.47300000e+03 
640.396  1.47700000e+03 
640.360  1.43700000e+03 
640.324  1.39600000e+03 
640.289  1.32400000e+03 
640.253  1.35100000e+03 
640.217  1.35600000e+03 
640.181  1.32600000e+03 
640.145  1.32400000e+03 
640.109  1.35000000e+03 
640.073  1.33500000e+03 
640.037  1.25000000e+03 
640.001  1.32200000e+03 
639.965  1.19800000e+03 
639.929  1.32800000e+03 
639.894  1.25300000e+03 
639.858  1.29500000e+03 
639.822  1.21900000e+03 
639.786  1.19800000e+03 
639.750  1.18100000e+03 
639.714  1.14600000e+03 
639.678  1.25600000e+03 
639.642  1.22100000e+03 
639.606  1.21500000e+03 
639.570  1.14800000e+03 
639.534  1.15900000e+03 
639.498  1.22900000e+03 
639.463  1.17000000e+03 
639.427  1.15300000e+03 
639.391  1.10200000e+03 
639.355  1.12500000e+03 
639.319  1.13700000e+03 
639.283  1.17300000e+03 
639.247  1.15300000e+03 
639.211  1.11200000e+03 
639.175  1.06900000e+03 
639.139  1.21600000e+03 
639.103  1.11400000e+03 
639.068  1.12300000e+03 
639.032  1.15900000e+03 
638.996  1.13000000e+03 
638.960  1.12800000e+03 
638.924  1.17600000e+03 
638.888  1.14800000e+03 
638.852  1.12600000e+03 
638.816  1.15200000e+03 
638.780  1.18000000e+03 
638.744  1.13500000e+03 
638.708  1.03900000e+03 
638.672  1.12300000e+03 
638.637  1.11600000e+03 
638.601  1.16900000e+03 
638.565  1.14900000e+03 
638.529  1.13700000e+03 
638.493  1.13100000e+03 
638.457  1.12000000e+03 
638.421  1.08300000e+03 
638.385  1.17400000e+03 
638.349  1.17300000e+03 
638.313  1.12000000e+03 
638.277  1.14400000e+03 
638.242  1.10500000e+03 
638.206  1.17500000e+03 
638.170  1.08500000e+03 
638.134  1.13400000e+03 
638.098  1.11900000e+03 
638.062  1.14100000e+03 
638.026  1.14700000e+03 
637.990  1.12600000e+03 
637.954  1.11200000e+03 
637.918  1.13700000e+03 
637.882  1.13000000e+03 
637.847  1.13500000e+03 
637.811  1.09600000e+03 
637.775  1.15300000e+03 
637.739  1.17300000e+03 
637.703  1.05100000e+03 
637.667  1.07800000e+03 
637.631  1.14600000e+03 
637.595  1.14200000e+03 
637.559  1.08100000e+03 
637.523  1.12000000e+03 
637.487  1.15800000e+03 
637.451  1.09100000e+03 
637.416  1.14400000e+03 
637.380  1.17800000e+03 
637.344  1.09600000e+03 
637.308  1.10200000e+03 
637.272  1.11500000e+03 
637.236  1.11300000e+03 
637.200  1.13600000e+03 
637.164  1.14900000e+03 
637.128  1.14700000e+03 
637.092  1.08400000e+03 
637.056  1.13800000e+03 
637.021  1.09400000e+03 
[ Region 17 Curve ]
BEcenter= 643.000 
BEwidth= -11.959 
Excitation= 1486.600
Time_p_channel= 256.000 
Size= 334
648.979  1.53500000e+03 
648.944  1.60300000e+03 
648.908  1.58300000e+03 
648.872  1.68400000e+03 
648.836  1.72400000e+03 
648.800  1.61800000e+03 
648.764  1.65800000e+03 
648.728  1.57500000e+03 
648.692  1.60900000e+03 
648.656  1.65800000e+03 
648.620  1.64500000e+03 
648.584  1.66700000e+03 
648.549  1.61700000e+03 
648.513  1.59500000e+03 
648.477  1.67500000e+03 
648.441  1.64800000e+03 
648.405  1.53800000e+03 
648.369  1.65200000e+03 
648.333  1.60300000e+03 
648.297  1.68000000e+03 
648.261  1.67500000e+03 
648.225  1.58800000e+03 
648.189  1.65900000e+03 
648.153  1.65300000e+03 
648.118  1.72300000e+03 
648.082  1.57900000e+03 
648.046  1.68500000e+03 
648.010  1.71700000e+03 
647.974  1.66700000e+03 
647.938  1.62900000e+03 
647.902  1.69800000e+03 
647.866  1.68000000e+03 
647.830  1.67700000e+03 
647.794  1.62300000e+03 
647.758  1.64900000e+03 
647.723  1.70600000e+03 
647.687  1.65200000e+03 
647.651  1.70200000e+03 
647.615  1.69900000e+03 
647.579  1.68000000e+03 
647.543  1.61500000e+03 
647.507  1.68100000e+03 
647.471  1.63000000e+03 
647.435  1.68800000e+03 
647.399  1.59800000e+03 
647.363  1.62100000e+03 
647.328  1.65500000e+03 
647.292  1.62400000e+03 
647.256  1.69400000e+03 
647.220  1.62600000e+03 
647.184  1.69400000e+03 
647.148  1.66400000e+03 
647.112  1.71300000e+03 
647.076  1.71700000e+03 
647.040  1.65900000e+03 
647.004  1.66100000e+03 
646.968  1.62300000e+03 
646.932  1.66000000e+03 
646.897  1.63600000e+03 
646.861  1.73600000e+03 
646.825  1.69500000e+03 
646.789  1.69200000e+03 
646.753  1.69700000e+03 
646.717  1.68500000e+03 
646.681  1.55600000e+03 
646.645  1.61100000e+03 
646.609  1.65100000e+03 
646.573  1.72000000e+03 
646.537  1.66100000e+03 
646.502  1.59500000e+03 
646.466  1.64500000e+03 
646.430  1.61300000e+03 
646.394  1.62600000e+03 
646.358  1.68800000e+03 
646.322  1.68400000e+03 
646.286  1.69700000e+03 
646.250  1.71000000e+03 
646.214  1.64100000e+03 
646.178  1.72700000e+03 
646.142  1.73200000e+03 
646.106  1.75800000e+03 
646.071  1.69200000e+03 
646.035  1.79900000e+03 
645.999  1.71200000e+03 
645.963  1.81300000e+03 
645.927  1.81200000e+03 
645.891  1.69500000e+03 
645.855  1.71700000e+03 
645.819  1.68100000e+03 
645.783  1.74000000e+03 
645.747  1.78800000e+03 
645.711  1.70100000e+03 
645.676  1.79500000e+03 
645.640  1.76000000e+03 
645.604  1.74900000e+03 
645.568  1.78400000e+03 
645.532  1.76300000e+03 
645.496  1.89300000e+03 
645.460  1.86700000e+03 
645.424  1.78900000e+03 
645.388  1.82600000e+03 
645.352  1.79100000e+03 
645.316  1.83800000e+03 
645.280  1.81800000e+03 
645.245  1.83600000e+03 
645.209  1.82700000e+03 
645.173  1.84400000e+03 
645.137  1.87600000e+03 
645.101  1.88700000e+03 
645.065  1.89600000e+03 
645.029  1.84800000e+03 
644.993  1.93900000e+03 
644.957  1.93500000e+03 
644.921  1.99200000e+03 
644.885  1.94500000e+03 
644.850  1.91500000e+03 
644.814  1.89500000e+03 
644.778  1.99400000e+03 
644.742  1.90100000e+03 
644.706  1.89500000e+03 
644.670  1.97700000e+03 
644.634  2.02200000e+03 
644.598  1.97800000e+03 
644.562  2.01000000e+03 
644.526  2.02300000e+03 
644.490  1.97700000e+03 
644.454  2.03100000e+03 
644.419  2.03800000e+03 
644.383  2.02700000e+03 
644.347  2.10600000e+03 
644.311  2.19200000e+03 
644.275  2.03500000e+03 
644.239  2.11700000e+03 
644.203  2.08100000e+03 
644.167  2.10600000e+03 
644.131  2.13400000e+03 
644.095  2.13400000e+03 
644.059  2.17500000e+03 
644.024  2.23700000e+03 
643.988  2.13800000e+03 
643.952  2.17200000e+03 
643.916  2.18600000e+03 
643.880  2.29800000e+03 
643.844  2.26400000e+03 
643.808  2.26600000e+03 
643.772  2.25900000e+03 
643.736  2.31700000e+03 
643.700  2.33200000e+03 
643.664  2.34200000e+03 
643.628  2.32500000e+03 
643.593  2.36800000e+03 
643.557  2.36400000e+03 
643.521  2.29600000e+03 
643.485  2.36400000e+03 
643.449  2.29900000e+03 
643.413  2.45700000e+03 
643.377  2.30400000e+03 
643.341  2.40100000e+03 
643.305  2.37400000e+03 
643.269  2.40100000e+03 
643.233  2.46500000e+03 
643.198  2.36900000e+03 
643.162  2.47400000e+03 
643.126  2.45300000e+03 
643.090  2.53400000e+03 
643.054  2.47000000e+03 
643.018  2.52800000e+03 
642.982  2.49800000e+03 
642.946  2.48100000e+03 
642.910  2.51300000e+03 
642.874  2.56700000e+03 
642.838  2.51800000e+03 
642.802  2.50700000e+03 
642.767  2.56100000e+03 
642.731  2.46900000e+03 
642.695  2.56600000e+03 
642.659  2.48500000e+03 
642.623  2.47200000e+03 
642.587  2.53200000e+03 
642.551  2.55100000e+03 
642.515  2.52600000e+03 
642.479  2.56400000e+03 
642.443  2.52700000e+03 
642.407  2.44800000e+03 
642.372  2.51700000e+03 
642.336  2.49700000e+03 
642.300  2.44200000e+03 
642.264  2.59200000e+03 
642.228  2.62700000e+03 
642.192  2.47500000e+03 
642.156  2.53100000e+03 
642.120  2.57300000e+03 
642.084  2.44000000e+03 
642.048  2.39500000e+03 
642.012  2.48000000e+03 
641.976  2.39500000e+03 
641.941  2.46900000e+03 
641.905  2.50600000e+03 
641.869  2.37000000e+03 
641.833  2.33300000e+03 
641.797  2.39700000e+03 
641.761  2.27800000e+03 
641.725  2.39200000e+03 
641.689  2.24100000e+03 
641.653  2.33100000e+03 
641.617  2.30300000e+03 
641.581  2.24600000e+03 
641.546  2.19000000e+03 
641.510  2.24400000e+03 
641.474  2.20100000e+03 
641.438  2.13100000e+03 
641.402  2.19100000e+03 
641.366  2.18200000e+03 
641.330  2.12800000e+03 
641.294  2.07800000e+03 
641.258  2.12400000e+03 
641.222  2.15600000e+03 
641.186  2.09100000e+03 
641.150  2.03100000e+03 
641.115  1.96800000e+03 
641.079  1.95000000e+03 
641.043  1.96600000e+03 
641.007  1.97400000e+03 
640.971  1.92400000e+03 
640.935  1.85700000e+03 
640.899  1.77400000e+03 
640.863  1.82900000e+03 
640.827  1.78800000e+03 
640.791  1.71500000e+03 
640.755  1.81100000e+03 
640.720  1.72100000e+03 
640.684  1.72800000e+03 
640.648  1.66800000e+03 
640.612  1.58600000e+03 
640.576  1.61600000e+03 
640.540  1.59800000e+03 
640.504  1.55800000e+03 
640.468  1.48200000e+03 
640.432  1.46800000e+03 
640.396  1.48600000e+03 
640.360  1.44400000e+03 
640.324  1.50400000e+03 
640.289  1.42000000e+03 
640.253  1.45300000e+03 
640.217  1.38800000e+03 
640.181  1.46600000e+03 
640.145  1.35000000e+03 
640.109  1.40400000e+03 
640.073  1.33000000e+03 
640.037  1.35200000e+03 
640.001  1.29500000e+03 
639.965  1.33400000e+03 
639.929  1.31100000e+03 
639.894  1.29200000e+03 
639.858  1.29300000e+03 
639.822  1.18000000e+03 
639.786  1.29600000e+03 
639.750  1.33300000e+03 
639.714  1.20900000e+03 
639.678  1.21600000e+03 
639.642  1.29800000e+03 
639.606  1.25800000e+03 
639.570  1.22700000e+03 
639.534  1.25800000e+03 
639.498  1.24300000e+03 
639.463  1.19600000e+03 
639.427  1.21200000e+03 
639.391  1.15200000e+03 
639.355  1.12800000e+03 
639.319  1.21400000e+03 
639.283  1.20500000e+03 
639.247  1.19100000e+03 
639.211  1.13800000e+03 
639.175  1.17700000e+03 
639.139  1.18800000e+03 
639.103  1.17500000e+03 
639.068  1.10700000e+03 
639.032  1.15800000e+03 
638.996  1.15800000e+03 
638.960  1.17400000e+03 
638.924  1.15900000e+03 
638.888  1.19000000e+03 
638.852  1.15000000e+03 
638.816  1.16300000e+03 
638.780  1.21600000e+03 
638.744  1.15300000e+03 
638.708  1.22400000e+03 
638.672  1.17900000e+03 
638.637  1.14300000e+03 
638.601  1.20800000e+03 
638.565  1.15600000e+03 
638.529  1.18400000e+03 
638.493  1.16900000e+03 
638.457  1.14500000e+03 
638.421  1.18400000e+03 
638.385  1.18100000e+03 
638.349  1.14400000e+03 
638.313  1.17800000e+03 
638.277  1.18400000e+03 
638.242  1.19500000e+03 
638.206  1.19700000e+03 
638.170  1.22600000e+03 
638.134  1.17400000e+03 
638.098  1.14500000e+03 
638.062  1.17000000e+03 
638.026  1.15300000e+03 
637.990  1.17300000e+03 
637.954  1.11700000e+03 
637.918  1.15400000e+03 
637.882  1.11400000e+03 
637.847  1.12900000e+03 
637.811  1.15800000e+03 
637.775  1.14300000e+03 
637.739  1.21100000e+03 
637.703  1.18300000e+03 
637.667  1.14300000e+03 
637.631  1.14600000e+03 
637.595  1.17500000e+03 
637.559  1.15000000e+03 
637.523  1.15800000e+03 
637.487  1.18400000e+03 
637.451  1.18700000e+03 
637.416  1.14500000e+03 
637.380  1.19400000e+03 
637.344  1.12400000e+03 
637.308  1.18100000e+03 
637.272  1.15400000e+03 
637.236  1.17700000e+03 
637.200  1.13400000e+03 
637.164  1.11600000e+03 
637.128  1.11400000e+03 
637.092  1.15000000e+03 
637.056  1.16000000e+03 
637.021  1.13300000e+03 
