[ Experiment Parameters ]
Experiment Description= <none> 
Number_of_Regions_in_Experiment= 2 

Original_File_name= c:\alexesca\data\cal.xps 
Instrument= ESCA-West
Date= 07-30-1997
Time=  19:37:47

[ Region 1 Parameters ]
Region_Description = O for XPD                          
BEcenter(eV) = 532.000000
BEwidth(eV) = 10.000000
BEstep(eV) = 0.035938
Dwell_Time(sec) = 0.500000
N_o_scans = 1  
N_o_Channels = 278  
Excitation_Energy = 0.000000  
Scan_mode = 0  (DITHERED)

[ Region 2 Parameters ]
Region_Description = Mn for XPD                         
BEcenter(eV) = 643.000000
BEwidth(eV) = 12.000000
BEstep(eV) = 0.035938
Dwell_Time(sec) = 0.500000
N_o_scans = 1  
N_o_Channels = 334  
Excitation_Energy = 0.000000  
Scan_mode = 0  (DITHERED)

[ Region 1 Curve ]
BEcenter= 532.000 
BEwidth= -9.943  
Excitation= 1486.600
Time_p_channel= 128.000 
Size= 278
536.972  1.08300000e+03 
536.936  1.09500000e+03 
536.900  1.09400000e+03 
536.864  1.16400000e+03 
536.828  1.17400000e+03 
536.792  1.14000000e+03 
536.756  1.18100000e+03 
536.720  1.14600000e+03 
536.685  1.14100000e+03 
536.649  1.20600000e+03 
536.613  1.23700000e+03 
536.577  1.19000000e+03 
536.541  1.27800000e+03 
536.505  1.19400000e+03 
536.469  1.24500000e+03 
536.433  1.26700000e+03 
536.397  1.30800000e+03 
536.361  1.28000000e+03 
536.326  1.31000000e+03 
536.290  1.42600000e+03 
536.254  1.47000000e+03 
536.218  1.37800000e+03 
536.182  1.39100000e+03 
536.146  1.52100000e+03 
536.110  1.45800000e+03 
536.074  1.51400000e+03 
536.038  1.48100000e+03 
536.002  1.58100000e+03 
535.967  1.66300000e+03 
535.931  1.62700000e+03 
535.895  1.74200000e+03 
535.859  1.72600000e+03 
535.823  1.81600000e+03 
535.787  1.89900000e+03 
535.751  1.83400000e+03 
535.715  1.89300000e+03 
535.679  1.83400000e+03 
535.644  1.96000000e+03 
535.608  1.99900000e+03 
535.572  2.01600000e+03 
535.536  2.12500000e+03 
535.500  2.14200000e+03 
535.464  2.09200000e+03 
535.428  2.11200000e+03 
535.392  2.20000000e+03 
535.356  2.23200000e+03 
535.320  2.28400000e+03 
535.285  2.41800000e+03 
535.249  2.37600000e+03 
535.213  2.50700000e+03 
535.177  2.49300000e+03 
535.141  2.53200000e+03 
535.105  2.59700000e+03 
535.069  2.58100000e+03 
535.033  2.78300000e+03 
534.997  2.75900000e+03 
534.961  2.73500000e+03 
534.926  2.72800000e+03 
534.890  2.74200000e+03 
534.854  2.90500000e+03 
534.818  2.94200000e+03 
534.782  3.06300000e+03 
534.746  2.93200000e+03 
534.710  3.02500000e+03 
534.674  3.13400000e+03 
534.638  3.07500000e+03 
534.603  3.21300000e+03 
534.567  3.18100000e+03 
534.531  3.23400000e+03 
534.495  3.22900000e+03 
534.459  3.30000000e+03 
534.423  3.43000000e+03 
534.387  3.30500000e+03 
534.351  3.48000000e+03 
534.315  3.39600000e+03 
534.279  3.43100000e+03 
534.244  3.48300000e+03 
534.208  3.54600000e+03 
534.172  3.59300000e+03 
534.136  3.66700000e+03 
534.100  3.58500000e+03 
534.064  3.57100000e+03 
534.028  3.69300000e+03 
533.992  3.68700000e+03 
533.956  3.67600000e+03 
533.920  3.75800000e+03 
533.885  3.67700000e+03 
533.849  3.70500000e+03 
533.813  3.65200000e+03 
533.777  3.71900000e+03 
533.741  3.68700000e+03 
533.705  3.64300000e+03 
533.669  3.63900000e+03 
533.633  3.69400000e+03 
533.597  3.60900000e+03 
533.562  3.67900000e+03 
533.526  3.58500000e+03 
533.490  3.59800000e+03 
533.454  3.54200000e+03 
533.418  3.61000000e+03 
533.382  3.50800000e+03 
533.346  3.40100000e+03 
533.310  3.45300000e+03 
533.274  3.45400000e+03 
533.238  3.38200000e+03 
533.203  3.27600000e+03 
533.167  3.38400000e+03 
533.131  3.22200000e+03 
533.095  3.26000000e+03 
533.059  3.06900000e+03 
533.023  3.14200000e+03 
532.987  3.04900000e+03 
532.951  3.15600000e+03 
532.915  3.02700000e+03 
532.879  3.07100000e+03 
532.844  2.93100000e+03 
532.808  2.91200000e+03 
532.772  2.89700000e+03 
532.736  2.77300000e+03 
532.700  2.79500000e+03 
532.664  2.71200000e+03 
532.628  2.75000000e+03 
532.592  2.70500000e+03 
532.556  2.64000000e+03 
532.521  2.58100000e+03 
532.485  2.58200000e+03 
532.449  2.64100000e+03 
532.413  2.66100000e+03 
532.377  2.59200000e+03 
532.341  2.50500000e+03 
532.305  2.42400000e+03 
532.269  2.41900000e+03 
532.233  2.43700000e+03 
532.197  2.38000000e+03 
532.162  2.41000000e+03 
532.126  2.39200000e+03 
532.090  2.33600000e+03 
532.054  2.40500000e+03 
532.018  2.40700000e+03 
531.982  2.40400000e+03 
531.946  2.16400000e+03 
531.910  2.38000000e+03 
531.874  2.36200000e+03 
531.838  2.31000000e+03 
531.803  2.29300000e+03 
531.767  2.34900000e+03 
531.731  2.37000000e+03 
531.695  2.39200000e+03 
531.659  2.37100000e+03 
531.623  2.34500000e+03 
531.587  2.42700000e+03 
531.551  2.35200000e+03 
531.515  2.34300000e+03 
531.479  2.18300000e+03 
531.444  2.26400000e+03 
531.408  2.26800000e+03 
531.372  2.19400000e+03 
531.336  2.24900000e+03 
531.300  2.07800000e+03 
531.264  2.13200000e+03 
531.228  2.13100000e+03 
531.192  2.08700000e+03 
531.156  2.08300000e+03 
531.121  2.07100000e+03 
531.085  1.94900000e+03 
531.049  1.88700000e+03 
531.013  1.93400000e+03 
530.977  1.89500000e+03 
530.941  1.72900000e+03 
530.905  1.78000000e+03 
530.869  1.64200000e+03 
530.833  1.71100000e+03 
530.797  1.64900000e+03 
530.762  1.55800000e+03 
530.726  1.51400000e+03 
530.690  1.53500000e+03 
530.654  1.55100000e+03 
530.618  1.43800000e+03 
530.582  1.37100000e+03 
530.546  1.28400000e+03 
530.510  1.32700000e+03 
530.474  1.25300000e+03 
530.438  1.22200000e+03 
530.403  1.24100000e+03 
530.367  1.27100000e+03 
530.331  1.17800000e+03 
530.295  1.04600000e+03 
530.259  1.06000000e+03 
530.223  1.02300000e+03 
530.187  1.03200000e+03 
530.151  1.01200000e+03 
530.115  1.01500000e+03 
530.080  9.59000000e+02 
530.044  9.57000000e+02 
530.008  9.50000000e+02 
529.972  9.03000000e+02 
529.936  9.09000000e+02 
529.900  8.86000000e+02 
529.864  8.42000000e+02 
529.828  8.75000000e+02 
529.792  8.68000000e+02 
529.756  8.58000000e+02 
529.721  8.48000000e+02 
529.685  8.01000000e+02 
529.649  8.36000000e+02 
529.613  8.84000000e+02 
529.577  8.00000000e+02 
529.541  8.19000000e+02 
529.505  8.28000000e+02 
529.469  8.26000000e+02 
529.433  8.23000000e+02 
529.397  8.23000000e+02 
529.362  8.20000000e+02 
529.326  7.99000000e+02 
529.290  7.69000000e+02 
529.254  7.74000000e+02 
529.218  7.71000000e+02 
529.182  8.08000000e+02 
529.146  7.99000000e+02 
529.110  7.95000000e+02 
529.074  8.37000000e+02 
529.039  8.39000000e+02 
529.003  7.91000000e+02 
528.967  7.85000000e+02 
528.931  7.63000000e+02 
528.895  7.48000000e+02 
528.859  7.56000000e+02 
528.823  7.67000000e+02 
528.787  7.73000000e+02 
528.751  7.62000000e+02 
528.715  8.21000000e+02 
528.680  7.48000000e+02 
528.644  7.64000000e+02 
528.608  7.62000000e+02 
528.572  7.92000000e+02 
528.536  7.75000000e+02 
528.500  7.91000000e+02 
528.464  7.60000000e+02 
528.428  7.74000000e+02 
528.392  7.79000000e+02 
528.356  7.83000000e+02 
528.321  8.11000000e+02 
528.285  7.62000000e+02 
528.249  7.92000000e+02 
528.213  7.66000000e+02 
528.177  7.31000000e+02 
528.141  8.10000000e+02 
528.105  8.20000000e+02 
528.069  7.69000000e+02 
528.033  7.53000000e+02 
527.998  7.61000000e+02 
527.962  7.62000000e+02 
527.926  8.00000000e+02 
527.890  7.18000000e+02 
527.854  7.21000000e+02 
527.818  7.58000000e+02 
527.782  7.20000000e+02 
527.746  7.90000000e+02 
527.710  7.21000000e+02 
527.674  7.83000000e+02 
527.639  7.60000000e+02 
527.603  8.06000000e+02 
527.567  7.44000000e+02 
527.531  7.18000000e+02 
527.495  7.83000000e+02 
527.459  7.39000000e+02 
527.423  7.57000000e+02 
527.387  7.94000000e+02 
527.351  7.61000000e+02 
527.315  7.74000000e+02 
527.280  7.49000000e+02 
527.244  7.74000000e+02 
527.208  7.43000000e+02 
527.172  7.57000000e+02 
527.136  7.79000000e+02 
527.100  7.58000000e+02 
527.064  8.20000000e+02 
527.028  7.55000000e+02 
[ Region 2 Curve ]
BEcenter= 643.000 
BEwidth= -11.959 
Excitation= 1486.600
Time_p_channel= 128.000 
Size= 334
648.979  2.02300000e+03 
648.944  1.87900000e+03 
648.908  2.00600000e+03 
648.872  1.83900000e+03 
648.836  1.96300000e+03 
648.800  1.86000000e+03 
648.764  2.01000000e+03 
648.728  1.90400000e+03 
648.692  1.86700000e+03 
648.656  1.91800000e+03 
648.620  1.86200000e+03 
648.584  1.88400000e+03 
648.549  1.90200000e+03 
648.513  1.84600000e+03 
648.477  1.97000000e+03 
648.441  1.90900000e+03 
648.405  1.99100000e+03 
648.369  1.96900000e+03 
648.333  1.96200000e+03 
648.297  1.92900000e+03 
648.261  1.88900000e+03 
648.225  1.93500000e+03 
648.189  1.88000000e+03 
648.153  1.93800000e+03 
648.118  1.88700000e+03 
648.082  1.87700000e+03 
648.046  1.95500000e+03 
648.010  1.87600000e+03 
647.974  1.94200000e+03 
647.938  1.89600000e+03 
647.902  1.94200000e+03 
647.866  1.94500000e+03 
647.830  1.86800000e+03 
647.794  1.86200000e+03 
647.758  1.96500000e+03 
647.723  1.94900000e+03 
647.687  1.94300000e+03 
647.651  1.93400000e+03 
647.615  1.94500000e+03 
647.579  2.02400000e+03 
647.543  1.85000000e+03 
647.507  1.89100000e+03 
647.471  1.98400000e+03 
647.435  1.94700000e+03 
647.399  1.95400000e+03 
647.363  1.87800000e+03 
647.328  1.95600000e+03 
647.292  1.88900000e+03 
647.256  1.99200000e+03 
647.220  1.90100000e+03 
647.184  1.96100000e+03 
647.148  1.92200000e+03 
647.112  1.98300000e+03 
647.076  1.89800000e+03 
647.040  1.88000000e+03 
647.004  1.91200000e+03 
646.968  1.84600000e+03 
646.932  1.94800000e+03 
646.897  1.98600000e+03 
646.861  1.96600000e+03 
646.825  1.95200000e+03 
646.789  1.91300000e+03 
646.753  1.95900000e+03 
646.717  1.93600000e+03 
646.681  2.01600000e+03 
646.645  1.99000000e+03 
646.609  1.96300000e+03 
646.573  1.94000000e+03 
646.537  1.94900000e+03 
646.502  1.96800000e+03 
646.466  1.95100000e+03 
646.430  2.00100000e+03 
646.394  1.90700000e+03 
646.358  2.03000000e+03 
646.322  2.01100000e+03 
646.286  2.03800000e+03 
646.250  1.94700000e+03 
646.214  2.03500000e+03 
646.178  2.03200000e+03 
646.142  1.92700000e+03 
646.106  1.98900000e+03 
646.071  1.99400000e+03 
646.035  1.93200000e+03 
645.999  1.90000000e+03 
645.963  1.99600000e+03 
645.927  1.99700000e+03 
645.891  2.12900000e+03 
645.855  2.06500000e+03 
645.819  2.04900000e+03 
645.783  2.06600000e+03 
645.747  2.12800000e+03 
645.711  2.01400000e+03 
645.676  2.01700000e+03 
645.640  1.96900000e+03 
645.604  2.08500000e+03 
645.568  2.03700000e+03 
645.532  2.05400000e+03 
645.496  2.03600000e+03 
645.460  2.03900000e+03 
645.424  2.07000000e+03 
645.388  2.04900000e+03 
645.352  2.01100000e+03 
645.316  2.11500000e+03 
645.280  2.02300000e+03 
645.245  2.09300000e+03 
645.209  2.18900000e+03 
645.173  2.12600000e+03 
645.137  2.06800000e+03 
645.101  2.19800000e+03 
645.065  2.12400000e+03 
645.029  2.15700000e+03 
644.993  2.14400000e+03 
644.957  2.13600000e+03 
644.921  2.20200000e+03 
644.885  2.13500000e+03 
644.850  2.13300000e+03 
644.814  2.13900000e+03 
644.778  2.13600000e+03 
644.742  2.12000000e+03 
644.706  2.17100000e+03 
644.670  2.22800000e+03 
644.634  2.10000000e+03 
644.598  2.22600000e+03 
644.562  2.24800000e+03 
644.526  2.23000000e+03 
644.490  2.18700000e+03 
644.454  2.15300000e+03 
644.419  2.29200000e+03 
644.383  2.32200000e+03 
644.347  2.31000000e+03 
644.311  2.30400000e+03 
644.275  2.27100000e+03 
644.239  2.30000000e+03 
644.203  2.28000000e+03 
644.167  2.43200000e+03 
644.131  2.32200000e+03 
644.095  2.32600000e+03 
644.059  2.31800000e+03 
644.024  2.33800000e+03 
643.988  2.40100000e+03 
643.952  2.44000000e+03 
643.916  2.44700000e+03 
643.880  2.34700000e+03 
643.844  2.41700000e+03 
643.808  2.49400000e+03 
643.772  2.45400000e+03 
643.736  2.40400000e+03 
643.700  2.47200000e+03 
643.664  2.56500000e+03 
643.628  2.53100000e+03 
643.593  2.47400000e+03 
643.557  2.45600000e+03 
643.521  2.40900000e+03 
643.485  2.47000000e+03 
643.449  2.56300000e+03 
643.413  2.62300000e+03 
643.377  2.49400000e+03 
643.341  2.51600000e+03 
643.305  2.61300000e+03 
643.269  2.57400000e+03 
643.233  2.48600000e+03 
643.198  2.59300000e+03 
643.162  2.54600000e+03 
643.126  2.49400000e+03 
643.090  2.58000000e+03 
643.054  2.55300000e+03 
643.018  2.57500000e+03 
642.982  2.52600000e+03 
642.946  2.59400000e+03 
642.910  2.57700000e+03 
642.874  2.58300000e+03 
642.838  2.59400000e+03 
642.802  2.60800000e+03 
642.767  2.52500000e+03 
642.731  2.61600000e+03 
642.695  2.54500000e+03 
642.659  2.56900000e+03 
642.623  2.52300000e+03 
642.587  2.56400000e+03 
642.551  2.56500000e+03 
642.515  2.60800000e+03 
642.479  2.48200000e+03 
642.443  2.40300000e+03 
642.407  2.57500000e+03 
642.372  2.55800000e+03 
642.336  2.53100000e+03 
642.300  2.49200000e+03 
642.264  2.50000000e+03 
642.228  2.54500000e+03 
642.192  2.59900000e+03 
642.156  2.51700000e+03 
642.120  2.58600000e+03 
642.084  2.44200000e+03 
642.048  2.39900000e+03 
642.012  2.49400000e+03 
641.976  2.41900000e+03 
641.941  2.59800000e+03 
641.905  2.50700000e+03 
641.869  2.40500000e+03 
641.833  2.42000000e+03 
641.797  2.33700000e+03 
641.761  2.39100000e+03 
641.725  2.34200000e+03 
641.689  2.37000000e+03 
641.653  2.25700000e+03 
641.617  2.26900000e+03 
641.581  2.34800000e+03 
641.546  2.34600000e+03 
641.510  2.22200000e+03 
641.474  2.32500000e+03 
641.438  2.26800000e+03 
641.402  2.24300000e+03 
641.366  2.22100000e+03 
641.330  2.20200000e+03 
641.294  2.14100000e+03 
641.258  2.16700000e+03 
641.222  2.13000000e+03 
641.186  2.07700000e+03 
641.150  2.15100000e+03 
641.115  2.08600000e+03 
641.079  2.01700000e+03 
641.043  2.07800000e+03 
641.007  1.98400000e+03 
640.971  2.00000000e+03 
640.935  1.95900000e+03 
640.899  2.03000000e+03 
640.863  1.89900000e+03 
640.827  1.87700000e+03 
640.791  2.01200000e+03 
640.755  1.90600000e+03 
640.720  1.93100000e+03 
640.684  1.87500000e+03 
640.648  1.83900000e+03 
640.612  1.83300000e+03 
640.576  1.77800000e+03 
640.540  1.83700000e+03 
640.504  1.79300000e+03 
640.468  1.80400000e+03 
640.432  1.77700000e+03 
640.396  1.73700000e+03 
640.360  1.74100000e+03 
640.324  1.67500000e+03 
640.289  1.73600000e+03 
640.253  1.66500000e+03 
640.217  1.67400000e+03 
640.181  1.66200000e+03 
640.145  1.66000000e+03 
640.109  1.60900000e+03 
640.073  1.68600000e+03 
640.037  1.70300000e+03 
640.001  1.64000000e+03 
639.965  1.68000000e+03 
639.929  1.63400000e+03 
639.894  1.59800000e+03 
639.858  1.60800000e+03 
639.822  1.56600000e+03 
639.786  1.59200000e+03 
639.750  1.64700000e+03 
639.714  1.59800000e+03 
639.678  1.56900000e+03 
639.642  1.63300000e+03 
639.606  1.56600000e+03 
639.570  1.59400000e+03 
639.534  1.55800000e+03 
639.498  1.61700000e+03 
639.463  1.59300000e+03 
639.427  1.63300000e+03 
639.391  1.59000000e+03 
639.355  1.59500000e+03 
639.319  1.61800000e+03 
639.283  1.53000000e+03 
639.247  1.57500000e+03 
639.211  1.60100000e+03 
639.175  1.59900000e+03 
639.139  1.61100000e+03 
639.103  1.55600000e+03 
639.068  1.49100000e+03 
639.032  1.55500000e+03 
638.996  1.54300000e+03 
638.960  1.53700000e+03 
638.924  1.55400000e+03 
638.888  1.57100000e+03 
638.852  1.58700000e+03 
638.816  1.61800000e+03 
638.780  1.59700000e+03 
638.744  1.59900000e+03 
638.708  1.51100000e+03 
638.672  1.53400000e+03 
638.637  1.58000000e+03 
638.601  1.59600000e+03 
638.565  1.56900000e+03 
638.529  1.58800000e+03 
638.493  1.58900000e+03 
638.457  1.59200000e+03 
638.421  1.65000000e+03 
638.385  1.59800000e+03 
638.349  1.50100000e+03 
638.313  1.56600000e+03 
638.277  1.54600000e+03 
638.242  1.59500000e+03 
638.206  1.59500000e+03 
638.170  1.56000000e+03 
638.134  1.57500000e+03 
638.098  1.58000000e+03 
638.062  1.58000000e+03 
638.026  1.49500000e+03 
637.990  1.56800000e+03 
637.954  1.62700000e+03 
637.918  1.60900000e+03 
637.882  1.54800000e+03 
637.847  1.61800000e+03 
637.811  1.54000000e+03 
637.775  1.60700000e+03 
637.739  1.55200000e+03 
637.703  1.59900000e+03 
637.667  1.59300000e+03 
637.631  1.54100000e+03 
637.595  1.53400000e+03 
637.559  1.59700000e+03 
637.523  1.64400000e+03 
637.487  1.53800000e+03 
637.451  1.62800000e+03 
637.416  1.53700000e+03 
637.380  1.55900000e+03 
637.344  1.48500000e+03 
637.308  1.59200000e+03 
637.272  1.62000000e+03 
637.236  1.54200000e+03 
637.200  1.66600000e+03 
637.164  1.59000000e+03 
637.128  1.57200000e+03 
637.092  1.56800000e+03 
637.056  1.57300000e+03 
637.021  1.55800000e+03 
