EXPERIMENT FILE
Version = 2

[ Experiment Parameters ]
Experiment Description= second 
Number_of_Regions_in_Experiment= 10 

Original_File_name= C:\alexesca\data\Noise]\Attempt1_10Cu111014.xps 
Instrument= HP ESCA West
Date= 11-10-2014
Time=  15:14:15

[ Layer Parameters ]
Layer_Type= XPS

[ Region 1 Parameters ]
Region_Description = Fixed552eV                         
BEcenter(eV) = 552.000000
BEwidth(eV) = 9.200000
BEstep(eV) = 0.035938
Dwell_Time(sec) = 1.000000
N_o_scans = 1000  
N_o_Channels = 256  
Scan_mode = 1  (FIXED)

[ Region 2 Parameters ]
Region_Description = Fixed552eV                         
BEcenter(eV) = 552.000000
BEwidth(eV) = 9.200000
BEstep(eV) = 0.035938
Dwell_Time(sec) = 1.000000
N_o_scans = 1000  
N_o_Channels = 256  
Scan_mode = 1  (FIXED)

[ Region 3 Parameters ]
Region_Description = Fixed552eV                         
BEcenter(eV) = 552.000000
BEwidth(eV) = 9.200000
BEstep(eV) = 0.035938
Dwell_Time(sec) = 1.000000
N_o_scans = 1000  
N_o_Channels = 256  
Scan_mode = 1  (FIXED)

[ Region 4 Parameters ]
Region_Description = Fixed552eV                         
BEcenter(eV) = 552.000000
BEwidth(eV) = 9.200000
BEstep(eV) = 0.035938
Dwell_Time(sec) = 1.000000
N_o_scans = 1000  
N_o_Channels = 256  
Scan_mode = 1  (FIXED)

[ Region 5 Parameters ]
Region_Description = Fixed552eV                         
BEcenter(eV) = 552.000000
BEwidth(eV) = 9.200000
BEstep(eV) = 0.035938
Dwell_Time(sec) = 1.000000
N_o_scans = 1000  
N_o_Channels = 256  
Scan_mode = 1  (FIXED)

[ Region 6 Parameters ]
Region_Description = Fixed552eV                         
BEcenter(eV) = 552.000000
BEwidth(eV) = 9.200000
BEstep(eV) = 0.035938
Dwell_Time(sec) = 1.000000
N_o_scans = 1000  
N_o_Channels = 256  
Scan_mode = 1  (FIXED)

[ Region 7 Parameters ]
Region_Description = Fixed552eV                         
BEcenter(eV) = 552.000000
BEwidth(eV) = 9.200000
BEstep(eV) = 0.035938
Dwell_Time(sec) = 1.000000
N_o_scans = 1000  
N_o_Channels = 256  
Scan_mode = 1  (FIXED)

[ Region 8 Parameters ]
Region_Description = Fixed552eV                         
BEcenter(eV) = 552.000000
BEwidth(eV) = 9.200000
BEstep(eV) = 0.035938
Dwell_Time(sec) = 1.000000
N_o_scans = 1000  
N_o_Channels = 256  
Scan_mode = 1  (FIXED)

[ Region 9 Parameters ]
Region_Description = Fixed552eV                         
BEcenter(eV) = 552.000000
BEwidth(eV) = 9.200000
BEstep(eV) = 0.035938
Dwell_Time(sec) = 1.000000
N_o_scans = 1000  
N_o_Channels = 256  
Scan_mode = 1  (FIXED)

[ Region 10 Parameters ]
Region_Description = Fixed552eV                         
BEcenter(eV) = 552.000000
BEwidth(eV) = 9.200000
BEstep(eV) = 0.035938
Dwell_Time(sec) = 1.000000
N_o_scans = 1000  
N_o_Channels = 256  
Scan_mode = 1  (FIXED)

[ L= 1 R= 1 ]
BEcenter= 552.000 
BEwidth= -9.200  
Excitation= 1486.600
Time_p_channel= 1000.000
Size= 256
556.600  1.68200000e+03 
556.564  1.69000000e+03 
556.528  1.64800000e+03 
556.492  1.59500000e+03 
556.456  1.71700000e+03 
556.420  1.67700000e+03 
556.384  1.75400000e+03 
556.347  1.74000000e+03 
556.311  1.75100000e+03 
556.275  1.71800000e+03 
556.239  1.70600000e+03 
556.203  1.75400000e+03 
556.167  1.71100000e+03 
556.131  1.70900000e+03 
556.095  1.77800000e+03 
556.059  1.76600000e+03 
556.023  1.74900000e+03 
555.987  1.73200000e+03 
555.951  1.78900000e+03 
555.915  1.76500000e+03 
555.878  1.79600000e+03 
555.842  1.75700000e+03 
555.806  1.71700000e+03 
555.770  1.82500000e+03 
555.734  1.84000000e+03 
555.698  1.83800000e+03 
555.662  1.85200000e+03 
555.626  1.79600000e+03 
555.590  1.79500000e+03 
555.554  1.79200000e+03 
555.518  1.84000000e+03 
555.482  1.84200000e+03 
555.445  1.81700000e+03 
555.409  1.83300000e+03 
555.373  1.86500000e+03 
555.337  1.90300000e+03 
555.301  1.86900000e+03 
555.265  1.91600000e+03 
555.229  1.91600000e+03 
555.193  1.85900000e+03 
555.157  1.90500000e+03 
555.121  1.90700000e+03 
555.085  1.89800000e+03 
555.049  1.91500000e+03 
555.013  1.93200000e+03 
554.976  1.92500000e+03 
554.940  1.85900000e+03 
554.904  1.91300000e+03 
554.868  1.95600000e+03 
554.832  1.94500000e+03 
554.796  1.94400000e+03 
554.760  2.03800000e+03 
554.724  2.04000000e+03 
554.688  2.01900000e+03 
554.652  2.03500000e+03 
554.616  2.06800000e+03 
554.580  1.98500000e+03 
554.544  2.01200000e+03 
554.507  2.05900000e+03 
554.471  2.02600000e+03 
554.435  2.04000000e+03 
554.399  1.99700000e+03 
554.363  1.99800000e+03 
554.327  1.97500000e+03 
554.291  1.96800000e+03 
554.255  2.05100000e+03 
554.219  2.04500000e+03 
554.183  2.00800000e+03 
554.147  2.02500000e+03 
554.111  1.98000000e+03 
554.075  2.04300000e+03 
554.038  2.02000000e+03 
554.002  2.05100000e+03 
553.966  1.93400000e+03 
553.930  2.07900000e+03 
553.894  2.06300000e+03 
553.858  2.06500000e+03 
553.822  2.16700000e+03 
553.786  2.17900000e+03 
553.750  2.11500000e+03 
553.714  2.16000000e+03 
553.678  2.01800000e+03 
553.642  2.13100000e+03 
553.605  2.12200000e+03 
553.569  2.19800000e+03 
553.533  2.15400000e+03 
553.497  2.11000000e+03 
553.461  2.14500000e+03 
553.425  2.13000000e+03 
553.389  2.10200000e+03 
553.353  2.08800000e+03 
553.317  2.08100000e+03 
553.281  2.06900000e+03 
553.245  2.06600000e+03 
553.209  2.03300000e+03 
553.173  2.11300000e+03 
553.136  2.13200000e+03 
553.100  1.93700000e+03 
553.064  2.04500000e+03 
553.028  2.01800000e+03 
552.992  1.99900000e+03 
552.956  2.06100000e+03 
552.920  2.01400000e+03 
552.884  2.09300000e+03 
552.848  2.07800000e+03 
552.812  1.98700000e+03 
552.776  1.96800000e+03 
552.740  1.99000000e+03 
552.704  1.94800000e+03 
552.667  2.02900000e+03 
552.631  1.93500000e+03 
552.595  1.95600000e+03 
552.559  1.94900000e+03 
552.523  1.88400000e+03 
552.487  1.88500000e+03 
552.451  1.89800000e+03 
552.415  1.92000000e+03 
552.379  1.94300000e+03 
552.343  1.89600000e+03 
552.307  1.90300000e+03 
552.271  1.76700000e+03 
552.235  1.95100000e+03 
552.198  1.88900000e+03 
552.162  1.89400000e+03 
552.126  1.92900000e+03 
552.090  1.90900000e+03 
552.054  1.85200000e+03 
552.018  1.91100000e+03 
551.982  1.80300000e+03 
551.946  1.89300000e+03 
551.910  1.81500000e+03 
551.874  1.80200000e+03 
551.838  1.77500000e+03 
551.802  1.81900000e+03 
551.765  1.80700000e+03 
551.729  1.82500000e+03 
551.693  1.77700000e+03 
551.657  1.84800000e+03 
551.621  1.80200000e+03 
551.585  1.77800000e+03 
551.549  1.83900000e+03 
551.513  1.80500000e+03 
551.477  1.83100000e+03 
551.441  1.84900000e+03 
551.405  1.80000000e+03 
551.369  1.71200000e+03 
551.333  1.79600000e+03 
551.296  1.78000000e+03 
551.260  1.83900000e+03 
551.224  1.78900000e+03 
551.188  1.75600000e+03 
551.152  1.77300000e+03 
551.116  1.75400000e+03 
551.080  1.69200000e+03 
551.044  1.68800000e+03 
551.008  1.74200000e+03 
550.972  1.72000000e+03 
550.936  1.76100000e+03 
550.900  1.65700000e+03 
550.864  1.68200000e+03 
550.827  1.76100000e+03 
550.791  1.72900000e+03 
550.755  1.68100000e+03 
550.719  1.70900000e+03 
550.683  1.75600000e+03 
550.647  1.71500000e+03 
550.611  1.67900000e+03 
550.575  1.68500000e+03 
550.539  1.58200000e+03 
550.503  1.63300000e+03 
550.467  1.71200000e+03 
550.431  1.59400000e+03 
550.395  1.61700000e+03 
550.358  1.63000000e+03 
550.322  1.62600000e+03 
550.286  1.60700000e+03 
550.250  1.64400000e+03 
550.214  1.65900000e+03 
550.178  1.64900000e+03 
550.142  1.63100000e+03 
550.106  1.63000000e+03 
550.070  1.61300000e+03 
550.034  1.62700000e+03 
549.998  1.62000000e+03 
549.962  1.65400000e+03 
549.925  1.65800000e+03 
549.889  1.63900000e+03 
549.853  1.65400000e+03 
549.817  1.49100000e+03 
549.781  1.61700000e+03 
549.745  1.57600000e+03 
549.709  1.56200000e+03 
549.673  1.54000000e+03 
549.637  1.59000000e+03 
549.601  1.51300000e+03 
549.565  1.51600000e+03 
549.529  1.48300000e+03 
549.493  1.54900000e+03 
549.456  1.58600000e+03 
549.420  1.50600000e+03 
549.384  1.50400000e+03 
549.348  1.50500000e+03 
549.312  1.48800000e+03 
549.276  1.46600000e+03 
549.240  1.45500000e+03 
549.204  1.47300000e+03 
549.168  1.47700000e+03 
549.132  1.53900000e+03 
549.096  1.40500000e+03 
549.060  1.49700000e+03 
549.024  1.46000000e+03 
548.987  1.47900000e+03 
548.951  1.48800000e+03 
548.915  1.44700000e+03 
548.879  1.45000000e+03 
548.843  1.39300000e+03 
548.807  1.40300000e+03 
548.771  1.36800000e+03 
548.735  1.40700000e+03 
548.699  1.34100000e+03 
548.663  1.34000000e+03 
548.627  1.32900000e+03 
548.591  1.35400000e+03 
548.555  1.32200000e+03 
548.518  1.29200000e+03 
548.482  1.27100000e+03 
548.446  1.33000000e+03 
548.410  1.25900000e+03 
548.374  1.29100000e+03 
548.338  1.35600000e+03 
548.302  1.31700000e+03 
548.266  1.29900000e+03 
548.230  1.33400000e+03 
548.194  1.27800000e+03 
548.158  1.34100000e+03 
548.122  1.30100000e+03 
548.085  1.23600000e+03 
548.049  1.26600000e+03 
548.013  1.24900000e+03 
547.977  1.19000000e+03 
547.941  1.22700000e+03 
547.905  1.32700000e+03 
547.869  1.21000000e+03 
547.833  1.09000000e+03 
547.797  1.19200000e+03 
547.761  9.30000000e+02 
547.725  9.71000000e+02 
547.689  1.11000000e+03 
547.653  8.32000000e+02 
547.616  9.27000000e+02 
547.580  9.41000000e+02 
547.544  6.90000000e+02 
547.508  6.32000000e+02 
547.472  3.26000000e+02 
547.436  0.00000000e+00 
547.400  0.00000000e+00 

[ L= 1 R= 2 ]
BEcenter= 552.000 
BEwidth= -9.200  
Excitation= 1486.600
Time_p_channel= 1000.000
Size= 256
556.600  1.56200000e+03 
556.564  1.63800000e+03 
556.528  1.62800000e+03 
556.492  1.73000000e+03 
556.456  1.69500000e+03 
556.420  1.72800000e+03 
556.384  1.72200000e+03 
556.347  1.75200000e+03 
556.311  1.78100000e+03 
556.275  1.69000000e+03 
556.239  1.78800000e+03 
556.203  1.73700000e+03 
556.167  1.83200000e+03 
556.131  1.72300000e+03 
556.095  1.76600000e+03 
556.059  1.72400000e+03 
556.023  1.77800000e+03 
555.987  1.72300000e+03 
555.951  1.73000000e+03 
555.915  1.69900000e+03 
555.878  1.81600000e+03 
555.842  1.79800000e+03 
555.806  1.77700000e+03 
555.770  1.78200000e+03 
555.734  1.75000000e+03 
555.698  1.77200000e+03 
555.662  1.83700000e+03 
555.626  1.86500000e+03 
555.590  1.88300000e+03 
555.554  1.86300000e+03 
555.518  1.81300000e+03 
555.482  1.91000000e+03 
555.445  1.86800000e+03 
555.409  1.89600000e+03 
555.373  1.83700000e+03 
555.337  1.88600000e+03 
555.301  1.85600000e+03 
555.265  1.88300000e+03 
555.229  1.95200000e+03 
555.193  1.91700000e+03 
555.157  1.86500000e+03 
555.121  1.93000000e+03 
555.085  1.89300000e+03 
555.049  1.91800000e+03 
555.013  1.89800000e+03 
554.976  2.01900000e+03 
554.940  1.96900000e+03 
554.904  1.91700000e+03 
554.868  2.00400000e+03 
554.832  1.99900000e+03 
554.796  1.99500000e+03 
554.760  2.00800000e+03 
554.724  1.99700000e+03 
554.688  1.98200000e+03 
554.652  2.04000000e+03 
554.616  1.92500000e+03 
554.580  1.99400000e+03 
554.544  2.04400000e+03 
554.507  1.96400000e+03 
554.471  2.03200000e+03 
554.435  2.04900000e+03 
554.399  2.09100000e+03 
554.363  1.99600000e+03 
554.327  2.02600000e+03 
554.291  1.98400000e+03 
554.255  1.95100000e+03 
554.219  1.95600000e+03 
554.183  2.05400000e+03 
554.147  2.02100000e+03 
554.111  2.06300000e+03 
554.075  2.00100000e+03 
554.038  1.98000000e+03 
554.002  2.02500000e+03 
553.966  2.08100000e+03 
553.930  2.07400000e+03 
553.894  2.13100000e+03 
553.858  2.07700000e+03 
553.822  2.05600000e+03 
553.786  2.12600000e+03 
553.750  2.22700000e+03 
553.714  2.10000000e+03 
553.678  2.10600000e+03 
553.642  2.11000000e+03 
553.605  2.20600000e+03 
553.569  2.12300000e+03 
553.533  2.15600000e+03 
553.497  2.16400000e+03 
553.461  2.15900000e+03 
553.425  2.08900000e+03 
553.389  2.09200000e+03 
553.353  2.14000000e+03 
553.317  2.18500000e+03 
553.281  2.09300000e+03 
553.245  2.09400000e+03 
553.209  1.96600000e+03 
553.173  2.09800000e+03 
553.136  1.96300000e+03 
553.100  2.01800000e+03 
553.064  1.98600000e+03 
553.028  2.01900000e+03 
552.992  2.08100000e+03 
552.956  2.01800000e+03 
552.920  1.98300000e+03 
552.884  2.03700000e+03 
552.848  2.03000000e+03 
552.812  1.98600000e+03 
552.776  1.95700000e+03 
552.740  1.97300000e+03 
552.704  1.97800000e+03 
552.667  1.94300000e+03 
552.631  1.90500000e+03 
552.595  1.93200000e+03 
552.559  1.85900000e+03 
552.523  1.93800000e+03 
552.487  1.92400000e+03 
552.451  1.96300000e+03 
552.415  1.92500000e+03 
552.379  1.84400000e+03 
552.343  1.88700000e+03 
552.307  1.96800000e+03 
552.271  1.87000000e+03 
552.235  1.90700000e+03 
552.198  1.88000000e+03 
552.162  1.93100000e+03 
552.126  1.91200000e+03 
552.090  1.97500000e+03 
552.054  1.83700000e+03 
552.018  1.82500000e+03 
551.982  1.85500000e+03 
551.946  1.85700000e+03 
551.910  1.90300000e+03 
551.874  1.91100000e+03 
551.838  1.80000000e+03 
551.802  1.82200000e+03 
551.765  1.82400000e+03 
551.729  1.82200000e+03 
551.693  1.83900000e+03 
551.657  1.87500000e+03 
551.621  1.82000000e+03 
551.585  1.85900000e+03 
551.549  1.84600000e+03 
551.513  1.77400000e+03 
551.477  1.81000000e+03 
551.441  1.78600000e+03 
551.405  1.84100000e+03 
551.369  1.79700000e+03 
551.333  1.77900000e+03 
551.296  1.76700000e+03 
551.260  1.76500000e+03 
551.224  1.85400000e+03 
551.188  1.75100000e+03 
551.152  1.73600000e+03 
551.116  1.83900000e+03 
551.080  1.73400000e+03 
551.044  1.80700000e+03 
551.008  1.73500000e+03 
550.972  1.73900000e+03 
550.936  1.74100000e+03 
550.900  1.72600000e+03 
550.864  1.72400000e+03 
550.827  1.72300000e+03 
550.791  1.74200000e+03 
550.755  1.67900000e+03 
550.719  1.66700000e+03 
550.683  1.62400000e+03 
550.647  1.70600000e+03 
550.611  1.67800000e+03 
550.575  1.67300000e+03 
550.539  1.73400000e+03 
550.503  1.76600000e+03 
550.467  1.62400000e+03 
550.431  1.58800000e+03 
550.395  1.71100000e+03 
550.358  1.54100000e+03 
550.322  1.52700000e+03 
550.286  1.70600000e+03 
550.250  1.70000000e+03 
550.214  1.66400000e+03 
550.178  1.71500000e+03 
550.142  1.57900000e+03 
550.106  1.66900000e+03 
550.070  1.64900000e+03 
550.034  1.68500000e+03 
549.998  1.63300000e+03 
549.962  1.68000000e+03 
549.925  1.65000000e+03 
549.889  1.60100000e+03 
549.853  1.58300000e+03 
549.817  1.61800000e+03 
549.781  1.62300000e+03 
549.745  1.60600000e+03 
549.709  1.63200000e+03 
549.673  1.55700000e+03 
549.637  1.61100000e+03 
549.601  1.55700000e+03 
549.565  1.54200000e+03 
549.529  1.51600000e+03 
549.493  1.48400000e+03 
549.456  1.58400000e+03 
549.420  1.53800000e+03 
549.384  1.56100000e+03 
549.348  1.48400000e+03 
549.312  1.46900000e+03 
549.276  1.43800000e+03 
549.240  1.45900000e+03 
549.204  1.51400000e+03 
549.168  1.52200000e+03 
549.132  1.44200000e+03 
549.096  1.48500000e+03 
549.060  1.45700000e+03 
549.024  1.43100000e+03 
548.987  1.37800000e+03 
548.951  1.41000000e+03 
548.915  1.41400000e+03 
548.879  1.47400000e+03 
548.843  1.35100000e+03 
548.807  1.40400000e+03 
548.771  1.32200000e+03 
548.735  1.36700000e+03 
548.699  1.37700000e+03 
548.663  1.36600000e+03 
548.627  1.33900000e+03 
548.591  1.30600000e+03 
548.555  1.32400000e+03 
548.518  1.29500000e+03 
548.482  1.30900000e+03 
548.446  1.31300000e+03 
548.410  1.37300000e+03 
548.374  1.35200000e+03 
548.338  1.35000000e+03 
548.302  1.33900000e+03 
548.266  1.34500000e+03 
548.230  1.28500000e+03 
548.194  1.35200000e+03 
548.158  1.30400000e+03 
548.122  1.25000000e+03 
548.085  1.26900000e+03 
548.049  1.24600000e+03 
548.013  1.26600000e+03 
547.977  1.23900000e+03 
547.941  1.27000000e+03 
547.905  1.30100000e+03 
547.869  1.18800000e+03 
547.833  1.07500000e+03 
547.797  1.29800000e+03 
547.761  1.01500000e+03 
547.725  9.74000000e+02 
547.689  1.05600000e+03 
547.653  8.79000000e+02 
547.616  9.34000000e+02 
547.580  9.21000000e+02 
547.544  6.46000000e+02 
547.508  6.66000000e+02 
547.472  3.73000000e+02 
547.436  0.00000000e+00 
547.400  0.00000000e+00 

[ L= 1 R= 3 ]
BEcenter= 552.000 
BEwidth= -9.200  
Excitation= 1486.600
Time_p_channel= 1000.000
Size= 256
556.600  1.58800000e+03 
556.564  1.63400000e+03 
556.528  1.63700000e+03 
556.492  1.66800000e+03 
556.456  1.74500000e+03 
556.420  1.70800000e+03 
556.384  1.65200000e+03 
556.347  1.66600000e+03 
556.311  1.77600000e+03 
556.275  1.72800000e+03 
556.239  1.73300000e+03 
556.203  1.85200000e+03 
556.167  1.71100000e+03 
556.131  1.76600000e+03 
556.095  1.72100000e+03 
556.059  1.72100000e+03 
556.023  1.83100000e+03 
555.987  1.73400000e+03 
555.951  1.81300000e+03 
555.915  1.78600000e+03 
555.878  1.71600000e+03 
555.842  1.78000000e+03 
555.806  1.77800000e+03 
555.770  1.80200000e+03 
555.734  1.72400000e+03 
555.698  1.83500000e+03 
555.662  1.83400000e+03 
555.626  1.81900000e+03 
555.590  1.79100000e+03 
555.554  1.87700000e+03 
555.518  1.80100000e+03 
555.482  1.84700000e+03 
555.445  1.91900000e+03 
555.409  1.84200000e+03 
555.373  1.89100000e+03 
555.337  1.84200000e+03 
555.301  1.85800000e+03 
555.265  1.87700000e+03 
555.229  1.91000000e+03 
555.193  1.94900000e+03 
555.157  1.92900000e+03 
555.121  1.89700000e+03 
555.085  1.91700000e+03 
555.049  1.92300000e+03 
555.013  1.91900000e+03 
554.976  1.97400000e+03 
554.940  1.92300000e+03 
554.904  1.91200000e+03 
554.868  2.01500000e+03 
554.832  2.00100000e+03 
554.796  2.04700000e+03 
554.760  1.96900000e+03 
554.724  1.97700000e+03 
554.688  1.96400000e+03 
554.652  1.98500000e+03 
554.616  1.98500000e+03 
554.580  1.97400000e+03 
554.544  2.03000000e+03 
554.507  2.05400000e+03 
554.471  2.09200000e+03 
554.435  2.01900000e+03 
554.399  1.94800000e+03 
554.363  1.97700000e+03 
554.327  2.02500000e+03 
554.291  1.97900000e+03 
554.255  1.97700000e+03 
554.219  2.04000000e+03 
554.183  2.06900000e+03 
554.147  2.00300000e+03 
554.111  2.02100000e+03 
554.075  2.08000000e+03 
554.038  2.03300000e+03 
554.002  2.03900000e+03 
553.966  2.01500000e+03 
553.930  2.02000000e+03 
553.894  2.06300000e+03 
553.858  2.07200000e+03 
553.822  2.14400000e+03 
553.786  2.17300000e+03 
553.750  2.06700000e+03 
553.714  2.11700000e+03 
553.678  2.09100000e+03 
553.642  2.23700000e+03 
553.605  2.20700000e+03 
553.569  2.18300000e+03 
553.533  2.19200000e+03 
553.497  2.20000000e+03 
553.461  2.16800000e+03 
553.425  2.17000000e+03 
553.389  2.07900000e+03 
553.353  2.05400000e+03 
553.317  1.99800000e+03 
553.281  2.12200000e+03 
553.245  2.05800000e+03 
553.209  2.07400000e+03 
553.173  2.03300000e+03 
553.136  1.98400000e+03 
553.100  2.02600000e+03 
553.064  2.07400000e+03 
553.028  2.09000000e+03 
552.992  2.12400000e+03 
552.956  2.09900000e+03 
552.920  2.07800000e+03 
552.884  2.00600000e+03 
552.848  2.03400000e+03 
552.812  1.98300000e+03 
552.776  1.99600000e+03 
552.740  1.97800000e+03 
552.704  1.99100000e+03 
552.667  1.98500000e+03 
552.631  1.89200000e+03 
552.595  2.00400000e+03 
552.559  1.88900000e+03 
552.523  1.97600000e+03 
552.487  1.80800000e+03 
552.451  1.91800000e+03 
552.415  1.89400000e+03 
552.379  1.91800000e+03 
552.343  1.94100000e+03 
552.307  1.88600000e+03 
552.271  1.90000000e+03 
552.235  1.93900000e+03 
552.198  1.84900000e+03 
552.162  1.90900000e+03 
552.126  1.92100000e+03 
552.090  1.96200000e+03 
552.054  1.90000000e+03 
552.018  1.91500000e+03 
551.982  1.84700000e+03 
551.946  1.85100000e+03 
551.910  1.86500000e+03 
551.874  1.81500000e+03 
551.838  1.89100000e+03 
551.802  1.83000000e+03 
551.765  1.88000000e+03 
551.729  1.80900000e+03 
551.693  1.85600000e+03 
551.657  1.80800000e+03 
551.621  1.79200000e+03 
551.585  1.83200000e+03 
551.549  1.77100000e+03 
551.513  1.82500000e+03 
551.477  1.77400000e+03 
551.441  1.82500000e+03 
551.405  1.85800000e+03 
551.369  1.74400000e+03 
551.333  1.73600000e+03 
551.296  1.80100000e+03 
551.260  1.79100000e+03 
551.224  1.79300000e+03 
551.188  1.78200000e+03 
551.152  1.75900000e+03 
551.116  1.75100000e+03 
551.080  1.80600000e+03 
551.044  1.80200000e+03 
551.008  1.76800000e+03 
550.972  1.73500000e+03 
550.936  1.71200000e+03 
550.900  1.69300000e+03 
550.864  1.75200000e+03 
550.827  1.68800000e+03 
550.791  1.69200000e+03 
550.755  1.66100000e+03 
550.719  1.73200000e+03 
550.683  1.74700000e+03 
550.647  1.67900000e+03 
550.611  1.65500000e+03 
550.575  1.62200000e+03 
550.539  1.67400000e+03 
550.503  1.64100000e+03 
550.467  1.59200000e+03 
550.431  1.57900000e+03 
550.395  1.71200000e+03 
550.358  1.60800000e+03 
550.322  1.66400000e+03 
550.286  1.63300000e+03 
550.250  1.62900000e+03 
550.214  1.58800000e+03 
550.178  1.61300000e+03 
550.142  1.63500000e+03 
550.106  1.66000000e+03 
550.070  1.66800000e+03 
550.034  1.70000000e+03 
549.998  1.69300000e+03 
549.962  1.58400000e+03 
549.925  1.67800000e+03 
549.889  1.58600000e+03 
549.853  1.58500000e+03 
549.817  1.59300000e+03 
549.781  1.61700000e+03 
549.745  1.53900000e+03 
549.709  1.55200000e+03 
549.673  1.58500000e+03 
549.637  1.56600000e+03 
549.601  1.53900000e+03 
549.565  1.55900000e+03 
549.529  1.53400000e+03 
549.493  1.52200000e+03 
549.456  1.55100000e+03 
549.420  1.49000000e+03 
549.384  1.42300000e+03 
549.348  1.50500000e+03 
549.312  1.45800000e+03 
549.276  1.39900000e+03 
549.240  1.48700000e+03 
549.204  1.50700000e+03 
549.168  1.49900000e+03 
549.132  1.43900000e+03 
549.096  1.47100000e+03 
549.060  1.45900000e+03 
549.024  1.47400000e+03 
548.987  1.49700000e+03 
548.951  1.38600000e+03 
548.915  1.45500000e+03 
548.879  1.41000000e+03 
548.843  1.40700000e+03 
548.807  1.36200000e+03 
548.771  1.42000000e+03 
548.735  1.42000000e+03 
548.699  1.41200000e+03 
548.663  1.35500000e+03 
548.627  1.36900000e+03 
548.591  1.35300000e+03 
548.555  1.27500000e+03 
548.518  1.34800000e+03 
548.482  1.31900000e+03 
548.446  1.33200000e+03 
548.410  1.29800000e+03 
548.374  1.28700000e+03 
548.338  1.35700000e+03 
548.302  1.29700000e+03 
548.266  1.34000000e+03 
548.230  1.28200000e+03 
548.194  1.31000000e+03 
548.158  1.26500000e+03 
548.122  1.30900000e+03 
548.085  1.25800000e+03 
548.049  1.25100000e+03 
548.013  1.24000000e+03 
547.977  1.33700000e+03 
547.941  1.28600000e+03 
547.905  1.27800000e+03 
547.869  1.22000000e+03 
547.833  1.09700000e+03 
547.797  1.29700000e+03 
547.761  9.68000000e+02 
547.725  1.02400000e+03 
547.689  1.06700000e+03 
547.653  8.56000000e+02 
547.616  9.50000000e+02 
547.580  9.11000000e+02 
547.544  7.05000000e+02 
547.508  6.47000000e+02 
547.472  3.08000000e+02 
547.436  0.00000000e+00 
547.400  0.00000000e+00 

[ L= 1 R= 4 ]
BEcenter= 552.000 
BEwidth= -9.200  
Excitation= 1486.600
Time_p_channel= 1000.000
Size= 256
556.600  1.70500000e+03 
556.564  1.57600000e+03 
556.528  1.69900000e+03 
556.492  1.73900000e+03 
556.456  1.71500000e+03 
556.420  1.66300000e+03 
556.384  1.70700000e+03 
556.347  1.65900000e+03 
556.311  1.69500000e+03 
556.275  1.81500000e+03 
556.239  1.70100000e+03 
556.203  1.74600000e+03 
556.167  1.73600000e+03 
556.131  1.78800000e+03 
556.095  1.75400000e+03 
556.059  1.80000000e+03 
556.023  1.74800000e+03 
555.987  1.78600000e+03 
555.951  1.79400000e+03 
555.915  1.76900000e+03 
555.878  1.73400000e+03 
555.842  1.85000000e+03 
555.806  1.81100000e+03 
555.770  1.73100000e+03 
555.734  1.90300000e+03 
555.698  1.85100000e+03 
555.662  1.85700000e+03 
555.626  1.79200000e+03 
555.590  1.81400000e+03 
555.554  1.81800000e+03 
555.518  1.79300000e+03 
555.482  1.84300000e+03 
555.445  1.87100000e+03 
555.409  1.94800000e+03 
555.373  1.89400000e+03 
555.337  1.86700000e+03 
555.301  1.86300000e+03 
555.265  1.94400000e+03 
555.229  1.81600000e+03 
555.193  1.85600000e+03 
555.157  1.93300000e+03 
555.121  1.88800000e+03 
555.085  1.87900000e+03 
555.049  1.95300000e+03 
555.013  1.99800000e+03 
554.976  1.90400000e+03 
554.940  1.99300000e+03 
554.904  1.94900000e+03 
554.868  1.97300000e+03 
554.832  1.97100000e+03 
554.796  1.96200000e+03 
554.760  2.00700000e+03 
554.724  2.02500000e+03 
554.688  2.04300000e+03 
554.652  1.96000000e+03 
554.616  1.99500000e+03 
554.580  1.99000000e+03 
554.544  2.02500000e+03 
554.507  2.02400000e+03 
554.471  1.99400000e+03 
554.435  1.95200000e+03 
554.399  2.00800000e+03 
554.363  1.94900000e+03 
554.327  2.05100000e+03 
554.291  1.97500000e+03 
554.255  2.07300000e+03 
554.219  2.04400000e+03 
554.183  2.04700000e+03 
554.147  1.97800000e+03 
554.111  2.04800000e+03 
554.075  2.08700000e+03 
554.038  2.01300000e+03 
554.002  2.09100000e+03 
553.966  1.99900000e+03 
553.930  2.08800000e+03 
553.894  2.08300000e+03 
553.858  2.06000000e+03 
553.822  2.13800000e+03 
553.786  2.13400000e+03 
553.750  2.10400000e+03 
553.714  2.17300000e+03 
553.678  2.19300000e+03 
553.642  2.15100000e+03 
553.605  2.19400000e+03 
553.569  2.26400000e+03 
553.533  2.20100000e+03 
553.497  2.28700000e+03 
553.461  2.15400000e+03 
553.425  2.08200000e+03 
553.389  2.09400000e+03 
553.353  2.19800000e+03 
553.317  2.12500000e+03 
553.281  2.00100000e+03 
553.245  2.16000000e+03 
553.209  2.05400000e+03 
553.173  2.06200000e+03 
553.136  2.01400000e+03 
553.100  2.04000000e+03 
553.064  2.05100000e+03 
553.028  2.05400000e+03 
552.992  2.05500000e+03 
552.956  2.03900000e+03 
552.920  2.00700000e+03 
552.884  1.99000000e+03 
552.848  2.01700000e+03 
552.812  2.00300000e+03 
552.776  2.05100000e+03 
552.740  1.97400000e+03 
552.704  2.02200000e+03 
552.667  1.95600000e+03 
552.631  1.88700000e+03 
552.595  1.93500000e+03 
552.559  1.84700000e+03 
552.523  1.94600000e+03 
552.487  1.96000000e+03 
552.451  1.93700000e+03 
552.415  1.84400000e+03 
552.379  1.91100000e+03 
552.343  1.98100000e+03 
552.307  1.85900000e+03 
552.271  1.92300000e+03 
552.235  1.87800000e+03 
552.198  1.99500000e+03 
552.162  1.87200000e+03 
552.126  1.81600000e+03 
552.090  1.93700000e+03 
552.054  1.83800000e+03 
552.018  1.91600000e+03 
551.982  1.86800000e+03 
551.946  1.87400000e+03 
551.910  1.88300000e+03 
551.874  1.79800000e+03 
551.838  1.84900000e+03 
551.802  1.89500000e+03 
551.765  1.91100000e+03 
551.729  1.86200000e+03 
551.693  1.82600000e+03 
551.657  1.80700000e+03 
551.621  1.83000000e+03 
551.585  1.79100000e+03 
551.549  1.80600000e+03 
551.513  1.77100000e+03 
551.477  1.84600000e+03 
551.441  1.76300000e+03 
551.405  1.89900000e+03 
551.369  1.77900000e+03 
551.333  1.86700000e+03 
551.296  1.86100000e+03 
551.260  1.82000000e+03 
551.224  1.81400000e+03 
551.188  1.78500000e+03 
551.152  1.77500000e+03 
551.116  1.76200000e+03 
551.080  1.74300000e+03 
551.044  1.74100000e+03 
551.008  1.72000000e+03 
550.972  1.70900000e+03 
550.936  1.69700000e+03 
550.900  1.69600000e+03 
550.864  1.75300000e+03 
550.827  1.67900000e+03 
550.791  1.69600000e+03 
550.755  1.65000000e+03 
550.719  1.68900000e+03 
550.683  1.71400000e+03 
550.647  1.68100000e+03 
550.611  1.64800000e+03 
550.575  1.66800000e+03 
550.539  1.65600000e+03 
550.503  1.62400000e+03 
550.467  1.63900000e+03 
550.431  1.64100000e+03 
550.395  1.61000000e+03 
550.358  1.66000000e+03 
550.322  1.68800000e+03 
550.286  1.71000000e+03 
550.250  1.66800000e+03 
550.214  1.72100000e+03 
550.178  1.60600000e+03 
550.142  1.71800000e+03 
550.106  1.61600000e+03 
550.070  1.67000000e+03 
550.034  1.68400000e+03 
549.998  1.73600000e+03 
549.962  1.71900000e+03 
549.925  1.65400000e+03 
549.889  1.61800000e+03 
549.853  1.64300000e+03 
549.817  1.58800000e+03 
549.781  1.66700000e+03 
549.745  1.58600000e+03 
549.709  1.56000000e+03 
549.673  1.59800000e+03 
549.637  1.58400000e+03 
549.601  1.53300000e+03 
549.565  1.59300000e+03 
549.529  1.57600000e+03 
549.493  1.56200000e+03 
549.456  1.47400000e+03 
549.420  1.49400000e+03 
549.384  1.47700000e+03 
549.348  1.54000000e+03 
549.312  1.42500000e+03 
549.276  1.44700000e+03 
549.240  1.50700000e+03 
549.204  1.51000000e+03 
549.168  1.53500000e+03 
549.132  1.42800000e+03 
549.096  1.40700000e+03 
549.060  1.43000000e+03 
549.024  1.44100000e+03 
548.987  1.38300000e+03 
548.951  1.41000000e+03 
548.915  1.39700000e+03 
548.879  1.44000000e+03 
548.843  1.36300000e+03 
548.807  1.45900000e+03 
548.771  1.33000000e+03 
548.735  1.42500000e+03 
548.699  1.32600000e+03 
548.663  1.37900000e+03 
548.627  1.34700000e+03 
548.591  1.30100000e+03 
548.555  1.36600000e+03 
548.518  1.32700000e+03 
548.482  1.31000000e+03 
548.446  1.27000000e+03 
548.410  1.31300000e+03 
548.374  1.33000000e+03 
548.338  1.38800000e+03 
548.302  1.27500000e+03 
548.266  1.33200000e+03 
548.230  1.30800000e+03 
548.194  1.30800000e+03 
548.158  1.32700000e+03 
548.122  1.26500000e+03 
548.085  1.22200000e+03 
548.049  1.23200000e+03 
548.013  1.30800000e+03 
547.977  1.31300000e+03 
547.941  1.19300000e+03 
547.905  1.31400000e+03 
547.869  1.27900000e+03 
547.833  1.11800000e+03 
547.797  1.21200000e+03 
547.761  1.00300000e+03 
547.725  9.92000000e+02 
547.689  1.08600000e+03 
547.653  8.19000000e+02 
547.616  9.20000000e+02 
547.580  9.47000000e+02 
547.544  6.46000000e+02 
547.508  6.21000000e+02 
547.472  3.07000000e+02 
547.436  0.00000000e+00 
547.400  0.00000000e+00 

[ L= 1 R= 5 ]
BEcenter= 552.000 
BEwidth= -9.200  
Excitation= 1486.600
Time_p_channel= 1000.000
Size= 256
556.600  1.59000000e+03 
556.564  1.65800000e+03 
556.528  1.74700000e+03 
556.492  1.69300000e+03 
556.456  1.73000000e+03 
556.420  1.70100000e+03 
556.384  1.75100000e+03 
556.347  1.70300000e+03 
556.311  1.63300000e+03 
556.275  1.74000000e+03 
556.239  1.70900000e+03 
556.203  1.72000000e+03 
556.167  1.73800000e+03 
556.131  1.74700000e+03 
556.095  1.75800000e+03 
556.059  1.73700000e+03 
556.023  1.82200000e+03 
555.987  1.78600000e+03 
555.951  1.68600000e+03 
555.915  1.81300000e+03 
555.878  1.83000000e+03 
555.842  1.70700000e+03 
555.806  1.82000000e+03 
555.770  1.77900000e+03 
555.734  1.77500000e+03 
555.698  1.75400000e+03 
555.662  1.70800000e+03 
555.626  1.78000000e+03 
555.590  1.86500000e+03 
555.554  1.85700000e+03 
555.518  1.83600000e+03 
555.482  1.90000000e+03 
555.445  1.89400000e+03 
555.409  1.89300000e+03 
555.373  1.85700000e+03 
555.337  1.89000000e+03 
555.301  1.86900000e+03 
555.265  1.83100000e+03 
555.229  1.84100000e+03 
555.193  1.83900000e+03 
555.157  1.88000000e+03 
555.121  1.92700000e+03 
555.085  1.90300000e+03 
555.049  1.93000000e+03 
555.013  1.90000000e+03 
554.976  1.97200000e+03 
554.940  2.00900000e+03 
554.904  1.90000000e+03 
554.868  2.00000000e+03 
554.832  1.93700000e+03 
554.796  2.06400000e+03 
554.760  2.08500000e+03 
554.724  2.03600000e+03 
554.688  2.12100000e+03 
554.652  1.95900000e+03 
554.616  2.00900000e+03 
554.580  1.99900000e+03 
554.544  2.04300000e+03 
554.507  1.98900000e+03 
554.471  1.99500000e+03 
554.435  2.05500000e+03 
554.399  1.96700000e+03 
554.363  1.97200000e+03 
554.327  2.03200000e+03 
554.291  1.98600000e+03 
554.255  1.95500000e+03 
554.219  2.03100000e+03 
554.183  2.00800000e+03 
554.147  2.03800000e+03 
554.111  2.04500000e+03 
554.075  2.01500000e+03 
554.038  2.14000000e+03 
554.002  2.06100000e+03 
553.966  2.06000000e+03 
553.930  2.11500000e+03 
553.894  2.14300000e+03 
553.858  2.12100000e+03 
553.822  2.16200000e+03 
553.786  2.14900000e+03 
553.750  2.03400000e+03 
553.714  2.10800000e+03 
553.678  2.10900000e+03 
553.642  2.17400000e+03 
553.605  2.14500000e+03 
553.569  2.06000000e+03 
553.533  2.15900000e+03 
553.497  2.14200000e+03 
553.461  2.13300000e+03 
553.425  2.16100000e+03 
553.389  2.16000000e+03 
553.353  2.08000000e+03 
553.317  2.08700000e+03 
553.281  1.99600000e+03 
553.245  2.08300000e+03 
553.209  2.08200000e+03 
553.173  2.10000000e+03 
553.136  2.10600000e+03 
553.100  2.07300000e+03 
553.064  1.96700000e+03 
553.028  2.06700000e+03 
552.992  2.03800000e+03 
552.956  1.99000000e+03 
552.920  1.98100000e+03 
552.884  1.95700000e+03 
552.848  2.06900000e+03 
552.812  2.06800000e+03 
552.776  2.00500000e+03 
552.740  1.94400000e+03 
552.704  2.02800000e+03 
552.667  1.98700000e+03 
552.631  1.94600000e+03 
552.595  1.96600000e+03 
552.559  1.97000000e+03 
552.523  1.88500000e+03 
552.487  1.89400000e+03 
552.451  1.88200000e+03 
552.415  1.85200000e+03 
552.379  2.01700000e+03 
552.343  1.88900000e+03 
552.307  1.90200000e+03 
552.271  1.94600000e+03 
552.235  1.89100000e+03 
552.198  1.86700000e+03 
552.162  1.92500000e+03 
552.126  1.91100000e+03 
552.090  1.92800000e+03 
552.054  1.83700000e+03 
552.018  1.94300000e+03 
551.982  1.97600000e+03 
551.946  1.84700000e+03 
551.910  1.84900000e+03 
551.874  1.94800000e+03 
551.838  1.87400000e+03 
551.802  1.89800000e+03 
551.765  1.91900000e+03 
551.729  1.82700000e+03 
551.693  1.73300000e+03 
551.657  1.84300000e+03 
551.621  1.78800000e+03 
551.585  1.79000000e+03 
551.549  1.85400000e+03 
551.513  1.83400000e+03 
551.477  1.89000000e+03 
551.441  1.76500000e+03 
551.405  1.75600000e+03 
551.369  1.77300000e+03 
551.333  1.84500000e+03 
551.296  1.74700000e+03 
551.260  1.74600000e+03 
551.224  1.69900000e+03 
551.188  1.72700000e+03 
551.152  1.70300000e+03 
551.116  1.79000000e+03 
551.080  1.75400000e+03 
551.044  1.71000000e+03 
551.008  1.69600000e+03 
550.972  1.75000000e+03 
550.936  1.74600000e+03 
550.900  1.74300000e+03 
550.864  1.78900000e+03 
550.827  1.74500000e+03 
550.791  1.66700000e+03 
550.755  1.68000000e+03 
550.719  1.73000000e+03 
550.683  1.71000000e+03 
550.647  1.64800000e+03 
550.611  1.61000000e+03 
550.575  1.66800000e+03 
550.539  1.64200000e+03 
550.503  1.70600000e+03 
550.467  1.63600000e+03 
550.431  1.66000000e+03 
550.395  1.67200000e+03 
550.358  1.69400000e+03 
550.322  1.65500000e+03 
550.286  1.64800000e+03 
550.250  1.67400000e+03 
550.214  1.70000000e+03 
550.178  1.66300000e+03 
550.142  1.65500000e+03 
550.106  1.65900000e+03 
550.070  1.68400000e+03 
550.034  1.73300000e+03 
549.998  1.68300000e+03 
549.962  1.60500000e+03 
549.925  1.57100000e+03 
549.889  1.63800000e+03 
549.853  1.67000000e+03 
549.817  1.66400000e+03 
549.781  1.61000000e+03 
549.745  1.63100000e+03 
549.709  1.68500000e+03 
549.673  1.64100000e+03 
549.637  1.62400000e+03 
549.601  1.57600000e+03 
549.565  1.52000000e+03 
549.529  1.50700000e+03 
549.493  1.57300000e+03 
549.456  1.43100000e+03 
549.420  1.52200000e+03 
549.384  1.53600000e+03 
549.348  1.45500000e+03 
549.312  1.51100000e+03 
549.276  1.48300000e+03 
549.240  1.52100000e+03 
549.204  1.48200000e+03 
549.168  1.50000000e+03 
549.132  1.45100000e+03 
549.096  1.52400000e+03 
549.060  1.38200000e+03 
549.024  1.51400000e+03 
548.987  1.46400000e+03 
548.951  1.49100000e+03 
548.915  1.42900000e+03 
548.879  1.41700000e+03 
548.843  1.40200000e+03 
548.807  1.42400000e+03 
548.771  1.34500000e+03 
548.735  1.35800000e+03 
548.699  1.32400000e+03 
548.663  1.32000000e+03 
548.627  1.32800000e+03 
548.591  1.33200000e+03 
548.555  1.37900000e+03 
548.518  1.37000000e+03 
548.482  1.31800000e+03 
548.446  1.30400000e+03 
548.410  1.31300000e+03 
548.374  1.28000000e+03 
548.338  1.30800000e+03 
548.302  1.30900000e+03 
548.266  1.34600000e+03 
548.230  1.30800000e+03 
548.194  1.31100000e+03 
548.158  1.28000000e+03 
548.122  1.26100000e+03 
548.085  1.27900000e+03 
548.049  1.29900000e+03 
548.013  1.24900000e+03 
547.977  1.21900000e+03 
547.941  1.27300000e+03 
547.905  1.34000000e+03 
547.869  1.26100000e+03 
547.833  1.14000000e+03 
547.797  1.23700000e+03 
547.761  9.93000000e+02 
547.725  1.02400000e+03 
547.689  1.09800000e+03 
547.653  8.49000000e+02 
547.616  9.37000000e+02 
547.580  9.70000000e+02 
547.544  6.98000000e+02 
547.508  6.41000000e+02 
547.472  3.01000000e+02 
547.436  0.00000000e+00 
547.400  0.00000000e+00 

[ L= 1 R= 6 ]
BEcenter= 552.000 
BEwidth= -9.200  
Excitation= 1486.600
Time_p_channel= 1000.000
Size= 256
556.600  1.61500000e+03 
556.564  1.63900000e+03 
556.528  1.67700000e+03 
556.492  1.68400000e+03 
556.456  1.72900000e+03 
556.420  1.69900000e+03 
556.384  1.70700000e+03 
556.347  1.72700000e+03 
556.311  1.68100000e+03 
556.275  1.71800000e+03 
556.239  1.74000000e+03 
556.203  1.80700000e+03 
556.167  1.72100000e+03 
556.131  1.79000000e+03 
556.095  1.81900000e+03 
556.059  1.74600000e+03 
556.023  1.73400000e+03 
555.987  1.72800000e+03 
555.951  1.83700000e+03 
555.915  1.74400000e+03 
555.878  1.74700000e+03 
555.842  1.82800000e+03 
555.806  1.74000000e+03 
555.770  1.75200000e+03 
555.734  1.80700000e+03 
555.698  1.84300000e+03 
555.662  1.74800000e+03 
555.626  1.84600000e+03 
555.590  1.84800000e+03 
555.554  1.86000000e+03 
555.518  1.85200000e+03 
555.482  1.87600000e+03 
555.445  1.84000000e+03 
555.409  1.90800000e+03 
555.373  1.84700000e+03 
555.337  1.84900000e+03 
555.301  1.90000000e+03 
555.265  1.86300000e+03 
555.229  1.88500000e+03 
555.193  1.91600000e+03 
555.157  1.88700000e+03 
555.121  1.92300000e+03 
555.085  1.87500000e+03 
555.049  1.89200000e+03 
555.013  1.89700000e+03 
554.976  2.03800000e+03 
554.940  1.88800000e+03 
554.904  1.97200000e+03 
554.868  2.03600000e+03 
554.832  2.06700000e+03 
554.796  2.06100000e+03 
554.760  2.06800000e+03 
554.724  2.03600000e+03 
554.688  2.05200000e+03 
554.652  2.09300000e+03 
554.616  2.05600000e+03 
554.580  2.01900000e+03 
554.544  1.98700000e+03 
554.507  2.05400000e+03 
554.471  1.98400000e+03 
554.435  2.09300000e+03 
554.399  1.95900000e+03 
554.363  2.01600000e+03 
554.327  2.01800000e+03 
554.291  2.04200000e+03 
554.255  2.04000000e+03 
554.219  2.01200000e+03 
554.183  2.06500000e+03 
554.147  1.99500000e+03 
554.111  2.02300000e+03 
554.075  2.06100000e+03 
554.038  2.05200000e+03 
554.002  2.03400000e+03 
553.966  1.98300000e+03 
553.930  1.99100000e+03 
553.894  2.08900000e+03 
553.858  2.06600000e+03 
553.822  2.11000000e+03 
553.786  1.98900000e+03 
553.750  2.07900000e+03 
553.714  2.13900000e+03 
553.678  2.12800000e+03 
553.642  2.14400000e+03 
553.605  2.12900000e+03 
553.569  2.16700000e+03 
553.533  2.17400000e+03 
553.497  2.14900000e+03 
553.461  2.15400000e+03 
553.425  2.17500000e+03 
553.389  2.16200000e+03 
553.353  2.09500000e+03 
553.317  2.11800000e+03 
553.281  2.13500000e+03 
553.245  2.10300000e+03 
553.209  2.02000000e+03 
553.173  1.98900000e+03 
553.136  2.06100000e+03 
553.100  2.05800000e+03 
553.064  2.03500000e+03 
553.028  2.02700000e+03 
552.992  2.03700000e+03 
552.956  2.05400000e+03 
552.920  2.03000000e+03 
552.884  1.99800000e+03 
552.848  2.03100000e+03 
552.812  1.97400000e+03 
552.776  2.00000000e+03 
552.740  2.05600000e+03 
552.704  2.00600000e+03 
552.667  1.94500000e+03 
552.631  1.99000000e+03 
552.595  1.94700000e+03 
552.559  1.87600000e+03 
552.523  1.92300000e+03 
552.487  2.00600000e+03 
552.451  1.90200000e+03 
552.415  1.85600000e+03 
552.379  1.87700000e+03 
552.343  1.88000000e+03 
552.307  1.92600000e+03 
552.271  1.89600000e+03 
552.235  1.88000000e+03 
552.198  1.91800000e+03 
552.162  1.91100000e+03 
552.126  1.98300000e+03 
552.090  1.89100000e+03 
552.054  1.89900000e+03 
552.018  1.86700000e+03 
551.982  1.85400000e+03 
551.946  1.85300000e+03 
551.910  1.86800000e+03 
551.874  1.82200000e+03 
551.838  1.77600000e+03 
551.802  1.86900000e+03 
551.765  1.77300000e+03 
551.729  1.82500000e+03 
551.693  1.86200000e+03 
551.657  1.89900000e+03 
551.621  1.81500000e+03 
551.585  1.88900000e+03 
551.549  1.81200000e+03 
551.513  1.84400000e+03 
551.477  1.86500000e+03 
551.441  1.85000000e+03 
551.405  1.77800000e+03 
551.369  1.81100000e+03 
551.333  1.78500000e+03 
551.296  1.72500000e+03 
551.260  1.82800000e+03 
551.224  1.79900000e+03 
551.188  1.72600000e+03 
551.152  1.69600000e+03 
551.116  1.80900000e+03 
551.080  1.79700000e+03 
551.044  1.76400000e+03 
551.008  1.69300000e+03 
550.972  1.79600000e+03 
550.936  1.71800000e+03 
550.900  1.69500000e+03 
550.864  1.59300000e+03 
550.827  1.76900000e+03 
550.791  1.71500000e+03 
550.755  1.68800000e+03 
550.719  1.70500000e+03 
550.683  1.67600000e+03 
550.647  1.68600000e+03 
550.611  1.62300000e+03 
550.575  1.64900000e+03 
550.539  1.70900000e+03 
550.503  1.61200000e+03 
550.467  1.65600000e+03 
550.431  1.64900000e+03 
550.395  1.72900000e+03 
550.358  1.72100000e+03 
550.322  1.64500000e+03 
550.286  1.60200000e+03 
550.250  1.62900000e+03 
550.214  1.64700000e+03 
550.178  1.65700000e+03 
550.142  1.67500000e+03 
550.106  1.59800000e+03 
550.070  1.63700000e+03 
550.034  1.65400000e+03 
549.998  1.68800000e+03 
549.962  1.61600000e+03 
549.925  1.65900000e+03 
549.889  1.63000000e+03 
549.853  1.60000000e+03 
549.817  1.60600000e+03 
549.781  1.64700000e+03 
549.745  1.65000000e+03 
549.709  1.55600000e+03 
549.673  1.52200000e+03 
549.637  1.59600000e+03 
549.601  1.55200000e+03 
549.565  1.52700000e+03 
549.529  1.53600000e+03 
549.493  1.51300000e+03 
549.456  1.51800000e+03 
549.420  1.54100000e+03 
549.384  1.54800000e+03 
549.348  1.53400000e+03 
549.312  1.51000000e+03 
549.276  1.48200000e+03 
549.240  1.43900000e+03 
549.204  1.56800000e+03 
549.168  1.45900000e+03 
549.132  1.46800000e+03 
549.096  1.48900000e+03 
549.060  1.46700000e+03 
549.024  1.40000000e+03 
548.987  1.48200000e+03 
548.951  1.40300000e+03 
548.915  1.45700000e+03 
548.879  1.41200000e+03 
548.843  1.37500000e+03 
548.807  1.42600000e+03 
548.771  1.41300000e+03 
548.735  1.41800000e+03 
548.699  1.36600000e+03 
548.663  1.40400000e+03 
548.627  1.41200000e+03 
548.591  1.27400000e+03 
548.555  1.34700000e+03 
548.518  1.28700000e+03 
548.482  1.27900000e+03 
548.446  1.33600000e+03 
548.410  1.33500000e+03 
548.374  1.35100000e+03 
548.338  1.38400000e+03 
548.302  1.36900000e+03 
548.266  1.35800000e+03 
548.230  1.29200000e+03 
548.194  1.37700000e+03 
548.158  1.35900000e+03 
548.122  1.32600000e+03 
548.085  1.21500000e+03 
548.049  1.32600000e+03 
548.013  1.28600000e+03 
547.977  1.26600000e+03 
547.941  1.29800000e+03 
547.905  1.29800000e+03 
547.869  1.24000000e+03 
547.833  1.06200000e+03 
547.797  1.22400000e+03 
547.761  9.64000000e+02 
547.725  9.70000000e+02 
547.689  1.05800000e+03 
547.653  8.81000000e+02 
547.616  9.81000000e+02 
547.580  9.19000000e+02 
547.544  7.06000000e+02 
547.508  6.20000000e+02 
547.472  2.88000000e+02 
547.436  0.00000000e+00 
547.400  0.00000000e+00 

[ L= 1 R= 7 ]
BEcenter= 552.000 
BEwidth= -9.200  
Excitation= 1486.600
Time_p_channel= 1000.000
Size= 256
556.600  1.65100000e+03 
556.564  1.62000000e+03 
556.528  1.66700000e+03 
556.492  1.68900000e+03 
556.456  1.71000000e+03 
556.420  1.67700000e+03 
556.384  1.71000000e+03 
556.347  1.81800000e+03 
556.311  1.76300000e+03 
556.275  1.80500000e+03 
556.239  1.80100000e+03 
556.203  1.76900000e+03 
556.167  1.73700000e+03 
556.131  1.82300000e+03 
556.095  1.80800000e+03 
556.059  1.79800000e+03 
556.023  1.68200000e+03 
555.987  1.73100000e+03 
555.951  1.74800000e+03 
555.915  1.80500000e+03 
555.878  1.84900000e+03 
555.842  1.80400000e+03 
555.806  1.75200000e+03 
555.770  1.82700000e+03 
555.734  1.79500000e+03 
555.698  1.81400000e+03 
555.662  1.80400000e+03 
555.626  1.84200000e+03 
555.590  1.83300000e+03 
555.554  1.82800000e+03 
555.518  1.88700000e+03 
555.482  1.89200000e+03 
555.445  1.78900000e+03 
555.409  1.92100000e+03 
555.373  1.88300000e+03 
555.337  1.82600000e+03 
555.301  1.91700000e+03 
555.265  1.87300000e+03 
555.229  1.91400000e+03 
555.193  1.90300000e+03 
555.157  1.80600000e+03 
555.121  1.92300000e+03 
555.085  1.89700000e+03 
555.049  1.89400000e+03 
555.013  1.96100000e+03 
554.976  1.95400000e+03 
554.940  1.91300000e+03 
554.904  1.96500000e+03 
554.868  1.96100000e+03 
554.832  1.91300000e+03 
554.796  2.03000000e+03 
554.760  2.04900000e+03 
554.724  1.98200000e+03 
554.688  1.97700000e+03 
554.652  1.99700000e+03 
554.616  2.02600000e+03 
554.580  2.02900000e+03 
554.544  2.00900000e+03 
554.507  1.96600000e+03 
554.471  2.03400000e+03 
554.435  1.90500000e+03 
554.399  1.97500000e+03 
554.363  1.93300000e+03 
554.327  1.86800000e+03 
554.291  1.97400000e+03 
554.255  1.96300000e+03 
554.219  2.01300000e+03 
554.183  2.01400000e+03 
554.147  2.03900000e+03 
554.111  2.04100000e+03 
554.075  2.06400000e+03 
554.038  2.04500000e+03 
554.002  2.04200000e+03 
553.966  2.10300000e+03 
553.930  2.06200000e+03 
553.894  2.03800000e+03 
553.858  2.10200000e+03 
553.822  2.08900000e+03 
553.786  2.08100000e+03 
553.750  2.12900000e+03 
553.714  2.10800000e+03 
553.678  2.10100000e+03 
553.642  2.16100000e+03 
553.605  2.11600000e+03 
553.569  2.20100000e+03 
553.533  2.14400000e+03 
553.497  2.17100000e+03 
553.461  2.18900000e+03 
553.425  2.19400000e+03 
553.389  2.16500000e+03 
553.353  2.12900000e+03 
553.317  2.07000000e+03 
553.281  2.10700000e+03 
553.245  2.08800000e+03 
553.209  2.07200000e+03 
553.173  2.00800000e+03 
553.136  2.00200000e+03 
553.100  2.07100000e+03 
553.064  2.04100000e+03 
553.028  2.07900000e+03 
552.992  2.02700000e+03 
552.956  2.07700000e+03 
552.920  2.05000000e+03 
552.884  2.09200000e+03 
552.848  2.07200000e+03 
552.812  2.01500000e+03 
552.776  2.00800000e+03 
552.740  2.03100000e+03 
552.704  1.99400000e+03 
552.667  1.96900000e+03 
552.631  1.93800000e+03 
552.595  2.06100000e+03 
552.559  2.00300000e+03 
552.523  1.92100000e+03 
552.487  1.91800000e+03 
552.451  1.90700000e+03 
552.415  1.85000000e+03 
552.379  1.94100000e+03 
552.343  1.85600000e+03 
552.307  1.87400000e+03 
552.271  1.93300000e+03 
552.235  1.90700000e+03 
552.198  1.86200000e+03 
552.162  1.93000000e+03 
552.126  1.80200000e+03 
552.090  1.85200000e+03 
552.054  1.93500000e+03 
552.018  1.84700000e+03 
551.982  1.83200000e+03 
551.946  1.82400000e+03 
551.910  1.85600000e+03 
551.874  1.83700000e+03 
551.838  1.86100000e+03 
551.802  1.74600000e+03 
551.765  1.72300000e+03 
551.729  1.78800000e+03 
551.693  1.83300000e+03 
551.657  1.83000000e+03 
551.621  1.92900000e+03 
551.585  1.78200000e+03 
551.549  1.81300000e+03 
551.513  1.74900000e+03 
551.477  1.81200000e+03 
551.441  1.76500000e+03 
551.405  1.79900000e+03 
551.369  1.78800000e+03 
551.333  1.78200000e+03 
551.296  1.79000000e+03 
551.260  1.76600000e+03 
551.224  1.81300000e+03 
551.188  1.70500000e+03 
551.152  1.84900000e+03 
551.116  1.76700000e+03 
551.080  1.74600000e+03 
551.044  1.74100000e+03 
551.008  1.74100000e+03 
550.972  1.61400000e+03 
550.936  1.66100000e+03 
550.900  1.69000000e+03 
550.864  1.67600000e+03 
550.827  1.76500000e+03 
550.791  1.77700000e+03 
550.755  1.63300000e+03 
550.719  1.63500000e+03 
550.683  1.60700000e+03 
550.647  1.61300000e+03 
550.611  1.68400000e+03 
550.575  1.67700000e+03 
550.539  1.63900000e+03 
550.503  1.64600000e+03 
550.467  1.64600000e+03 
550.431  1.70000000e+03 
550.395  1.63800000e+03 
550.358  1.64900000e+03 
550.322  1.65400000e+03 
550.286  1.63900000e+03 
550.250  1.67000000e+03 
550.214  1.66400000e+03 
550.178  1.70600000e+03 
550.142  1.69900000e+03 
550.106  1.70500000e+03 
550.070  1.71900000e+03 
550.034  1.70000000e+03 
549.998  1.65000000e+03 
549.962  1.66500000e+03 
549.925  1.63200000e+03 
549.889  1.66700000e+03 
549.853  1.71500000e+03 
549.817  1.61000000e+03 
549.781  1.58300000e+03 
549.745  1.54700000e+03 
549.709  1.56900000e+03 
549.673  1.55400000e+03 
549.637  1.56600000e+03 
549.601  1.51600000e+03 
549.565  1.55800000e+03 
549.529  1.58600000e+03 
549.493  1.48000000e+03 
549.456  1.53800000e+03 
549.420  1.55000000e+03 
549.384  1.49500000e+03 
549.348  1.52000000e+03 
549.312  1.46100000e+03 
549.276  1.47700000e+03 
549.240  1.45600000e+03 
549.204  1.48400000e+03 
549.168  1.48800000e+03 
549.132  1.48300000e+03 
549.096  1.36500000e+03 
549.060  1.40000000e+03 
549.024  1.41900000e+03 
548.987  1.43100000e+03 
548.951  1.41100000e+03 
548.915  1.41700000e+03 
548.879  1.37700000e+03 
548.843  1.40000000e+03 
548.807  1.35300000e+03 
548.771  1.40000000e+03 
548.735  1.43600000e+03 
548.699  1.33700000e+03 
548.663  1.42500000e+03 
548.627  1.32900000e+03 
548.591  1.28800000e+03 
548.555  1.31300000e+03 
548.518  1.30100000e+03 
548.482  1.34600000e+03 
548.446  1.29000000e+03 
548.410  1.32700000e+03 
548.374  1.24400000e+03 
548.338  1.33900000e+03 
548.302  1.34100000e+03 
548.266  1.38100000e+03 
548.230  1.31500000e+03 
548.194  1.33900000e+03 
548.158  1.28900000e+03 
548.122  1.31000000e+03 
548.085  1.26500000e+03 
548.049  1.32000000e+03 
548.013  1.23500000e+03 
547.977  1.27500000e+03 
547.941  1.23800000e+03 
547.905  1.26000000e+03 
547.869  1.21300000e+03 
547.833  1.11200000e+03 
547.797  1.24200000e+03 
547.761  9.72000000e+02 
547.725  1.02500000e+03 
547.689  1.05000000e+03 
547.653  8.20000000e+02 
547.616  9.88000000e+02 
547.580  9.27000000e+02 
547.544  7.34000000e+02 
547.508  6.11000000e+02 
547.472  3.19000000e+02 
547.436  0.00000000e+00 
547.400  0.00000000e+00 

[ L= 1 R= 8 ]
BEcenter= 552.000 
BEwidth= -9.200  
Excitation= 1486.600
Time_p_channel= 1000.000
Size= 256
556.600  1.69800000e+03 
556.564  1.64800000e+03 
556.528  1.67800000e+03 
556.492  1.67600000e+03 
556.456  1.65900000e+03 
556.420  1.71000000e+03 
556.384  1.68300000e+03 
556.347  1.66300000e+03 
556.311  1.72600000e+03 
556.275  1.76800000e+03 
556.239  1.74200000e+03 
556.203  1.73100000e+03 
556.167  1.78000000e+03 
556.131  1.71900000e+03 
556.095  1.67800000e+03 
556.059  1.79700000e+03 
556.023  1.76900000e+03 
555.987  1.75200000e+03 
555.951  1.74900000e+03 
555.915  1.78700000e+03 
555.878  1.77600000e+03 
555.842  1.85300000e+03 
555.806  1.76500000e+03 
555.770  1.77500000e+03 
555.734  1.80700000e+03 
555.698  1.78800000e+03 
555.662  1.72900000e+03 
555.626  1.75900000e+03 
555.590  1.82000000e+03 
555.554  1.83600000e+03 
555.518  1.83800000e+03 
555.482  1.81500000e+03 
555.445  1.92100000e+03 
555.409  1.84700000e+03 
555.373  1.89200000e+03 
555.337  1.90700000e+03 
555.301  1.87700000e+03 
555.265  1.88600000e+03 
555.229  1.86100000e+03 
555.193  1.84500000e+03 
555.157  1.89400000e+03 
555.121  1.91300000e+03 
555.085  1.93600000e+03 
555.049  1.90900000e+03 
555.013  1.90600000e+03 
554.976  1.96900000e+03 
554.940  1.97200000e+03 
554.904  2.01900000e+03 
554.868  1.95700000e+03 
554.832  2.05800000e+03 
554.796  2.02300000e+03 
554.760  1.95100000e+03 
554.724  1.98600000e+03 
554.688  2.02700000e+03 
554.652  1.99500000e+03 
554.616  2.07600000e+03 
554.580  2.00200000e+03 
554.544  2.10400000e+03 
554.507  2.01900000e+03 
554.471  2.04200000e+03 
554.435  2.01500000e+03 
554.399  1.94900000e+03 
554.363  1.99100000e+03 
554.327  2.03400000e+03 
554.291  2.07100000e+03 
554.255  2.05100000e+03 
554.219  2.04200000e+03 
554.183  1.98300000e+03 
554.147  1.96100000e+03 
554.111  2.05700000e+03 
554.075  2.01400000e+03 
554.038  2.11300000e+03 
554.002  2.06500000e+03 
553.966  2.07800000e+03 
553.930  1.98600000e+03 
553.894  2.09600000e+03 
553.858  2.04300000e+03 
553.822  2.07900000e+03 
553.786  2.13900000e+03 
553.750  2.11400000e+03 
553.714  2.12800000e+03 
553.678  2.13400000e+03 
553.642  2.06000000e+03 
553.605  2.27000000e+03 
553.569  2.13800000e+03 
553.533  2.19900000e+03 
553.497  2.06900000e+03 
553.461  2.17900000e+03 
553.425  2.15300000e+03 
553.389  2.19100000e+03 
553.353  2.11300000e+03 
553.317  2.07600000e+03 
553.281  2.07700000e+03 
553.245  2.13800000e+03 
553.209  2.17200000e+03 
553.173  2.12600000e+03 
553.136  2.06400000e+03 
553.100  2.06200000e+03 
553.064  2.09800000e+03 
553.028  2.04100000e+03 
552.992  2.01300000e+03 
552.956  2.02400000e+03 
552.920  2.02400000e+03 
552.884  2.01500000e+03 
552.848  2.12900000e+03 
552.812  1.90100000e+03 
552.776  2.05400000e+03 
552.740  1.97500000e+03 
552.704  2.07800000e+03 
552.667  1.86300000e+03 
552.631  1.96800000e+03 
552.595  1.92100000e+03 
552.559  1.95100000e+03 
552.523  1.98300000e+03 
552.487  1.96400000e+03 
552.451  1.93900000e+03 
552.415  1.94400000e+03 
552.379  1.94800000e+03 
552.343  1.84400000e+03 
552.307  1.91100000e+03 
552.271  2.01000000e+03 
552.235  1.91500000e+03 
552.198  1.89300000e+03 
552.162  1.85200000e+03 
552.126  1.87900000e+03 
552.090  1.93100000e+03 
552.054  1.90700000e+03 
552.018  1.87100000e+03 
551.982  1.87800000e+03 
551.946  1.86400000e+03 
551.910  1.78300000e+03 
551.874  1.85100000e+03 
551.838  1.86800000e+03 
551.802  1.85400000e+03 
551.765  1.84500000e+03 
551.729  1.86100000e+03 
551.693  1.91700000e+03 
551.657  1.83100000e+03 
551.621  1.88100000e+03 
551.585  1.85200000e+03 
551.549  1.85000000e+03 
551.513  1.90100000e+03 
551.477  1.86000000e+03 
551.441  1.83400000e+03 
551.405  1.85600000e+03 
551.369  1.75100000e+03 
551.333  1.77900000e+03 
551.296  1.73200000e+03 
551.260  1.73600000e+03 
551.224  1.75400000e+03 
551.188  1.81500000e+03 
551.152  1.78300000e+03 
551.116  1.60500000e+03 
551.080  1.68000000e+03 
551.044  1.75300000e+03 
551.008  1.72600000e+03 
550.972  1.81000000e+03 
550.936  1.73500000e+03 
550.900  1.77300000e+03 
550.864  1.75700000e+03 
550.827  1.73300000e+03 
550.791  1.68100000e+03 
550.755  1.71400000e+03 
550.719  1.70600000e+03 
550.683  1.69000000e+03 
550.647  1.68800000e+03 
550.611  1.66400000e+03 
550.575  1.69800000e+03 
550.539  1.64800000e+03 
550.503  1.57200000e+03 
550.467  1.65300000e+03 
550.431  1.63500000e+03 
550.395  1.60400000e+03 
550.358  1.61900000e+03 
550.322  1.61400000e+03 
550.286  1.69300000e+03 
550.250  1.63200000e+03 
550.214  1.68600000e+03 
550.178  1.64900000e+03 
550.142  1.69000000e+03 
550.106  1.68500000e+03 
550.070  1.62300000e+03 
550.034  1.70600000e+03 
549.998  1.62200000e+03 
549.962  1.63500000e+03 
549.925  1.60100000e+03 
549.889  1.64700000e+03 
549.853  1.64600000e+03 
549.817  1.66700000e+03 
549.781  1.60600000e+03 
549.745  1.60900000e+03 
549.709  1.58100000e+03 
549.673  1.54000000e+03 
549.637  1.47100000e+03 
549.601  1.55500000e+03 
549.565  1.52000000e+03 
549.529  1.53200000e+03 
549.493  1.54500000e+03 
549.456  1.56100000e+03 
549.420  1.54700000e+03 
549.384  1.51000000e+03 
549.348  1.51300000e+03 
549.312  1.46300000e+03 
549.276  1.47700000e+03 
549.240  1.43000000e+03 
549.204  1.49400000e+03 
549.168  1.51800000e+03 
549.132  1.51100000e+03 
549.096  1.46800000e+03 
549.060  1.48200000e+03 
549.024  1.43300000e+03 
548.987  1.40100000e+03 
548.951  1.47000000e+03 
548.915  1.36300000e+03 
548.879  1.46600000e+03 
548.843  1.34700000e+03 
548.807  1.41600000e+03 
548.771  1.44300000e+03 
548.735  1.36200000e+03 
548.699  1.42300000e+03 
548.663  1.40700000e+03 
548.627  1.34000000e+03 
548.591  1.34700000e+03 
548.555  1.40000000e+03 
548.518  1.33200000e+03 
548.482  1.33000000e+03 
548.446  1.33100000e+03 
548.410  1.30700000e+03 
548.374  1.32500000e+03 
548.338  1.39100000e+03 
548.302  1.35600000e+03 
548.266  1.28000000e+03 
548.230  1.34400000e+03 
548.194  1.25700000e+03 
548.158  1.25200000e+03 
548.122  1.32500000e+03 
548.085  1.25500000e+03 
548.049  1.24700000e+03 
548.013  1.27900000e+03 
547.977  1.26300000e+03 
547.941  1.28500000e+03 
547.905  1.18900000e+03 
547.869  1.29500000e+03 
547.833  1.12500000e+03 
547.797  1.21400000e+03 
547.761  9.69000000e+02 
547.725  1.02900000e+03 
547.689  1.09100000e+03 
547.653  8.18000000e+02 
547.616  1.01400000e+03 
547.580  9.77000000e+02 
547.544  6.76000000e+02 
547.508  6.38000000e+02 
547.472  3.31000000e+02 
547.436  0.00000000e+00 
547.400  0.00000000e+00 

[ L= 1 R= 9 ]
BEcenter= 552.000 
BEwidth= -9.200  
Excitation= 1486.600
Time_p_channel= 1000.000
Size= 256
556.600  1.64300000e+03 
556.564  1.66900000e+03 
556.528  1.67600000e+03 
556.492  1.72600000e+03 
556.456  1.64100000e+03 
556.420  1.76900000e+03 
556.384  1.68600000e+03 
556.347  1.69800000e+03 
556.311  1.78000000e+03 
556.275  1.69900000e+03 
556.239  1.70800000e+03 
556.203  1.73500000e+03 
556.167  1.76800000e+03 
556.131  1.81600000e+03 
556.095  1.74600000e+03 
556.059  1.81100000e+03 
556.023  1.76000000e+03 
555.987  1.78500000e+03 
555.951  1.74600000e+03 
555.915  1.69800000e+03 
555.878  1.79900000e+03 
555.842  1.88400000e+03 
555.806  1.80600000e+03 
555.770  1.77000000e+03 
555.734  1.75100000e+03 
555.698  1.80900000e+03 
555.662  1.85600000e+03 
555.626  1.90600000e+03 
555.590  1.76200000e+03 
555.554  1.85300000e+03 
555.518  1.79800000e+03 
555.482  1.80900000e+03 
555.445  1.89400000e+03 
555.409  1.78900000e+03 
555.373  1.88600000e+03 
555.337  1.81000000e+03 
555.301  1.91000000e+03 
555.265  1.90400000e+03 
555.229  1.93300000e+03 
555.193  1.94000000e+03 
555.157  1.94100000e+03 
555.121  1.99000000e+03 
555.085  1.95900000e+03 
555.049  1.85300000e+03 
555.013  1.95200000e+03 
554.976  1.98900000e+03 
554.940  1.96600000e+03 
554.904  1.95400000e+03 
554.868  1.94500000e+03 
554.832  1.96500000e+03 
554.796  2.03400000e+03 
554.760  2.08000000e+03 
554.724  1.97800000e+03 
554.688  1.99200000e+03 
554.652  2.04800000e+03 
554.616  1.98300000e+03 
554.580  2.02400000e+03 
554.544  2.06200000e+03 
554.507  2.00600000e+03 
554.471  2.05000000e+03 
554.435  2.03900000e+03 
554.399  2.00400000e+03 
554.363  1.95100000e+03 
554.327  2.08200000e+03 
554.291  2.02600000e+03 
554.255  1.88300000e+03 
554.219  2.07500000e+03 
554.183  1.96700000e+03 
554.147  2.03200000e+03 
554.111  1.99800000e+03 
554.075  2.02200000e+03 
554.038  2.08800000e+03 
554.002  2.05300000e+03 
553.966  2.13100000e+03 
553.930  2.06300000e+03 
553.894  2.08100000e+03 
553.858  2.06700000e+03 
553.822  2.11500000e+03 
553.786  2.07200000e+03 
553.750  2.10100000e+03 
553.714  2.08000000e+03 
553.678  2.11900000e+03 
553.642  2.13300000e+03 
553.605  2.23200000e+03 
553.569  2.27300000e+03 
553.533  2.20600000e+03 
553.497  2.12300000e+03 
553.461  2.18000000e+03 
553.425  2.18200000e+03 
553.389  2.14100000e+03 
553.353  2.11100000e+03 
553.317  2.08700000e+03 
553.281  2.09100000e+03 
553.245  2.11600000e+03 
553.209  2.15300000e+03 
553.173  2.10600000e+03 
553.136  2.03000000e+03 
553.100  2.00300000e+03 
553.064  1.99200000e+03 
553.028  2.02200000e+03 
552.992  2.05600000e+03 
552.956  2.04700000e+03 
552.920  1.95000000e+03 
552.884  2.07100000e+03 
552.848  2.02500000e+03 
552.812  1.98200000e+03 
552.776  1.91600000e+03 
552.740  2.00000000e+03 
552.704  1.96300000e+03 
552.667  2.05500000e+03 
552.631  1.95900000e+03 
552.595  2.04600000e+03 
552.559  1.97000000e+03 
552.523  1.86100000e+03 
552.487  1.96700000e+03 
552.451  1.98000000e+03 
552.415  1.94000000e+03 
552.379  1.83500000e+03 
552.343  1.86600000e+03 
552.307  1.94200000e+03 
552.271  1.95400000e+03 
552.235  1.93700000e+03 
552.198  1.95400000e+03 
552.162  1.95000000e+03 
552.126  1.90400000e+03 
552.090  1.88400000e+03 
552.054  1.88200000e+03 
552.018  1.83400000e+03 
551.982  1.87100000e+03 
551.946  1.78900000e+03 
551.910  1.80700000e+03 
551.874  1.78400000e+03 
551.838  1.87400000e+03 
551.802  1.79700000e+03 
551.765  1.85100000e+03 
551.729  1.81500000e+03 
551.693  1.88900000e+03 
551.657  1.86100000e+03 
551.621  1.78900000e+03 
551.585  1.84500000e+03 
551.549  1.81200000e+03 
551.513  1.79100000e+03 
551.477  1.75800000e+03 
551.441  1.79500000e+03 
551.405  1.85800000e+03 
551.369  1.82300000e+03 
551.333  1.75900000e+03 
551.296  1.90200000e+03 
551.260  1.77800000e+03 
551.224  1.76000000e+03 
551.188  1.77600000e+03 
551.152  1.74900000e+03 
551.116  1.74800000e+03 
551.080  1.76400000e+03 
551.044  1.76900000e+03 
551.008  1.79200000e+03 
550.972  1.76100000e+03 
550.936  1.74300000e+03 
550.900  1.68600000e+03 
550.864  1.65600000e+03 
550.827  1.77900000e+03 
550.791  1.65600000e+03 
550.755  1.70800000e+03 
550.719  1.67400000e+03 
550.683  1.59100000e+03 
550.647  1.71200000e+03 
550.611  1.68800000e+03 
550.575  1.66500000e+03 
550.539  1.66600000e+03 
550.503  1.67900000e+03 
550.467  1.69100000e+03 
550.431  1.65200000e+03 
550.395  1.63200000e+03 
550.358  1.69800000e+03 
550.322  1.59800000e+03 
550.286  1.69300000e+03 
550.250  1.64500000e+03 
550.214  1.65700000e+03 
550.178  1.66700000e+03 
550.142  1.62000000e+03 
550.106  1.64100000e+03 
550.070  1.67400000e+03 
550.034  1.67200000e+03 
549.998  1.66200000e+03 
549.962  1.67100000e+03 
549.925  1.61900000e+03 
549.889  1.63200000e+03 
549.853  1.58300000e+03 
549.817  1.65500000e+03 
549.781  1.62900000e+03 
549.745  1.58200000e+03 
549.709  1.64400000e+03 
549.673  1.54600000e+03 
549.637  1.56300000e+03 
549.601  1.56500000e+03 
549.565  1.61000000e+03 
549.529  1.57300000e+03 
549.493  1.55600000e+03 
549.456  1.54600000e+03 
549.420  1.49200000e+03 
549.384  1.53200000e+03 
549.348  1.52200000e+03 
549.312  1.55700000e+03 
549.276  1.55100000e+03 
549.240  1.47000000e+03 
549.204  1.46300000e+03 
549.168  1.56700000e+03 
549.132  1.44000000e+03 
549.096  1.50800000e+03 
549.060  1.45800000e+03 
549.024  1.44000000e+03 
548.987  1.42300000e+03 
548.951  1.50000000e+03 
548.915  1.46600000e+03 
548.879  1.44700000e+03 
548.843  1.37800000e+03 
548.807  1.40300000e+03 
548.771  1.34600000e+03 
548.735  1.38600000e+03 
548.699  1.39400000e+03 
548.663  1.42400000e+03 
548.627  1.31900000e+03 
548.591  1.31400000e+03 
548.555  1.27200000e+03 
548.518  1.33500000e+03 
548.482  1.37400000e+03 
548.446  1.28800000e+03 
548.410  1.29900000e+03 
548.374  1.30500000e+03 
548.338  1.32300000e+03 
548.302  1.29300000e+03 
548.266  1.30300000e+03 
548.230  1.30000000e+03 
548.194  1.28500000e+03 
548.158  1.32900000e+03 
548.122  1.28300000e+03 
548.085  1.33100000e+03 
548.049  1.28100000e+03 
548.013  1.26700000e+03 
547.977  1.24600000e+03 
547.941  1.28800000e+03 
547.905  1.26000000e+03 
547.869  1.20500000e+03 
547.833  1.11400000e+03 
547.797  1.30800000e+03 
547.761  1.00400000e+03 
547.725  9.56000000e+02 
547.689  1.05800000e+03 
547.653  8.79000000e+02 
547.616  9.35000000e+02 
547.580  9.37000000e+02 
547.544  7.13000000e+02 
547.508  6.16000000e+02 
547.472  3.43000000e+02 
547.436  0.00000000e+00 
547.400  0.00000000e+00 

[ L= 1 R= 10 ]
BEcenter= 552.000 
BEwidth= -9.200  
Excitation= 1486.600
Time_p_channel= 1000.000
Size= 256
556.600  1.60900000e+03 
556.564  1.64200000e+03 
556.528  1.73000000e+03 
556.492  1.64800000e+03 
556.456  1.71400000e+03 
556.420  1.74700000e+03 
556.384  1.70400000e+03 
556.347  1.79600000e+03 
556.311  1.80500000e+03 
556.275  1.73800000e+03 
556.239  1.82000000e+03 
556.203  1.77100000e+03 
556.167  1.85700000e+03 
556.131  1.74600000e+03 
556.095  1.68100000e+03 
556.059  1.77300000e+03 
556.023  1.76600000e+03 
555.987  1.85800000e+03 
555.951  1.72600000e+03 
555.915  1.85000000e+03 
555.878  1.65200000e+03 
555.842  1.74000000e+03 
555.806  1.75100000e+03 
555.770  1.86500000e+03 
555.734  1.77400000e+03 
555.698  1.81100000e+03 
555.662  1.83400000e+03 
555.626  1.85400000e+03 
555.590  1.80200000e+03 
555.554  1.82300000e+03 
555.518  1.85900000e+03 
555.482  1.92200000e+03 
555.445  1.86800000e+03 
555.409  1.85900000e+03 
555.373  1.93200000e+03 
555.337  1.88500000e+03 
555.301  1.79800000e+03 
555.265  1.86400000e+03 
555.229  1.92000000e+03 
555.193  1.92300000e+03 
555.157  1.95100000e+03 
555.121  2.02200000e+03 
555.085  1.94800000e+03 
555.049  1.96700000e+03 
555.013  1.87500000e+03 
554.976  1.97800000e+03 
554.940  1.98700000e+03 
554.904  1.99800000e+03 
554.868  2.00600000e+03 
554.832  1.97800000e+03 
554.796  2.03700000e+03 
554.760  1.92100000e+03 
554.724  2.04800000e+03 
554.688  1.97200000e+03 
554.652  2.07700000e+03 
554.616  2.02700000e+03 
554.580  1.97100000e+03 
554.544  2.08300000e+03 
554.507  2.01200000e+03 
554.471  2.02700000e+03 
554.435  1.97000000e+03 
554.399  2.03900000e+03 
554.363  2.06300000e+03 
554.327  1.97600000e+03 
554.291  1.91900000e+03 
554.255  2.02900000e+03 
554.219  2.08200000e+03 
554.183  2.01900000e+03 
554.147  2.06200000e+03 
554.111  1.96900000e+03 
554.075  1.97800000e+03 
554.038  2.05900000e+03 
554.002  2.11400000e+03 
553.966  2.00800000e+03 
553.930  2.10300000e+03 
553.894  2.09600000e+03 
553.858  2.09300000e+03 
553.822  2.12800000e+03 
553.786  2.10900000e+03 
553.750  2.14500000e+03 
553.714  2.09700000e+03 
553.678  2.15400000e+03 
553.642  2.12300000e+03 
553.605  2.13900000e+03 
553.569  2.22100000e+03 
553.533  2.10200000e+03 
553.497  2.15500000e+03 
553.461  2.13800000e+03 
553.425  2.13400000e+03 
553.389  2.17600000e+03 
553.353  2.16500000e+03 
553.317  2.11100000e+03 
553.281  2.07000000e+03 
553.245  2.10000000e+03 
553.209  2.00100000e+03 
553.173  2.02400000e+03 
553.136  2.13000000e+03 
553.100  2.12700000e+03 
553.064  2.04200000e+03 
553.028  2.02900000e+03 
552.992  2.03400000e+03 
552.956  2.08300000e+03 
552.920  1.94500000e+03 
552.884  2.00600000e+03 
552.848  1.96100000e+03 
552.812  1.97900000e+03 
552.776  1.91200000e+03 
552.740  1.90700000e+03 
552.704  1.99700000e+03 
552.667  1.98200000e+03 
552.631  2.05900000e+03 
552.595  1.96800000e+03 
552.559  1.91500000e+03 
552.523  1.94300000e+03 
552.487  1.93000000e+03 
552.451  1.99000000e+03 
552.415  1.89300000e+03 
552.379  1.87800000e+03 
552.343  1.98600000e+03 
552.307  1.93700000e+03 
552.271  1.92000000e+03 
552.235  1.91700000e+03 
552.198  1.87900000e+03 
552.162  1.86500000e+03 
552.126  1.96400000e+03 
552.090  1.89400000e+03 
552.054  1.93500000e+03 
552.018  1.87700000e+03 
551.982  1.80900000e+03 
551.946  1.93800000e+03 
551.910  1.83300000e+03 
551.874  1.84100000e+03 
551.838  1.93500000e+03 
551.802  1.80700000e+03 
551.765  1.87500000e+03 
551.729  1.88500000e+03 
551.693  1.84200000e+03 
551.657  1.81300000e+03 
551.621  1.87700000e+03 
551.585  1.80200000e+03 
551.549  1.86600000e+03 
551.513  1.84800000e+03 
551.477  1.82000000e+03 
551.441  1.84000000e+03 
551.405  1.71600000e+03 
551.369  1.84100000e+03 
551.333  1.73000000e+03 
551.296  1.81900000e+03 
551.260  1.77800000e+03 
551.224  1.79000000e+03 
551.188  1.87700000e+03 
551.152  1.67500000e+03 
551.116  1.66000000e+03 
551.080  1.78400000e+03 
551.044  1.75400000e+03 
551.008  1.74400000e+03 
550.972  1.71500000e+03 
550.936  1.74600000e+03 
550.900  1.74600000e+03 
550.864  1.75900000e+03 
550.827  1.69800000e+03 
550.791  1.72200000e+03 
550.755  1.71200000e+03 
550.719  1.67200000e+03 
550.683  1.70300000e+03 
550.647  1.63300000e+03 
550.611  1.65300000e+03 
550.575  1.69000000e+03 
550.539  1.59500000e+03 
550.503  1.60100000e+03 
550.467  1.58100000e+03 
550.431  1.62300000e+03 
550.395  1.65400000e+03 
550.358  1.66700000e+03 
550.322  1.63400000e+03 
550.286  1.69200000e+03 
550.250  1.67400000e+03 
550.214  1.66900000e+03 
550.178  1.64700000e+03 
550.142  1.64000000e+03 
550.106  1.70800000e+03 
550.070  1.69200000e+03 
550.034  1.65600000e+03 
549.998  1.68900000e+03 
549.962  1.65300000e+03 
549.925  1.56700000e+03 
549.889  1.67300000e+03 
549.853  1.63900000e+03 
549.817  1.60400000e+03 
549.781  1.67600000e+03 
549.745  1.54400000e+03 
549.709  1.56200000e+03 
549.673  1.56100000e+03 
549.637  1.57200000e+03 
549.601  1.55800000e+03 
549.565  1.52700000e+03 
549.529  1.53600000e+03 
549.493  1.53400000e+03 
549.456  1.45900000e+03 
549.420  1.53300000e+03 
549.384  1.49900000e+03 
549.348  1.49700000e+03 
549.312  1.50200000e+03 
549.276  1.42300000e+03 
549.240  1.51100000e+03 
549.204  1.49700000e+03 
549.168  1.49500000e+03 
549.132  1.50000000e+03 
549.096  1.42100000e+03 
549.060  1.45200000e+03 
549.024  1.43000000e+03 
548.987  1.51400000e+03 
548.951  1.48100000e+03 
548.915  1.46600000e+03 
548.879  1.31800000e+03 
548.843  1.36500000e+03 
548.807  1.44000000e+03 
548.771  1.48500000e+03 
548.735  1.34700000e+03 
548.699  1.36400000e+03 
548.663  1.40500000e+03 
548.627  1.33300000e+03 
548.591  1.29700000e+03 
548.555  1.35000000e+03 
548.518  1.37800000e+03 
548.482  1.34300000e+03 
548.446  1.32900000e+03 
548.410  1.30300000e+03 
548.374  1.33700000e+03 
548.338  1.30400000e+03 
548.302  1.33100000e+03 
548.266  1.32200000e+03 
548.230  1.33600000e+03 
548.194  1.28500000e+03 
548.158  1.28800000e+03 
548.122  1.31600000e+03 
548.085  1.23300000e+03 
548.049  1.25400000e+03 
548.013  1.30000000e+03 
547.977  1.26900000e+03 
547.941  1.25200000e+03 
547.905  1.25500000e+03 
547.869  1.21400000e+03 
547.833  1.18300000e+03 
547.797  1.30500000e+03 
547.761  1.01800000e+03 
547.725  1.00100000e+03 
547.689  1.07400000e+03 
547.653  8.44000000e+02 
547.616  9.77000000e+02 
547.580  9.50000000e+02 
547.544  6.95000000e+02 
547.508  6.28000000e+02 
547.472  3.20000000e+02 
547.436  0.00000000e+00 
547.400  0.00000000e+00 

