EXPERIMENT FILE
Version = 2

[ Experiment Parameters ]
Experiment Description= Fourth 
Number_of_Regions_in_Experiment= 10 

Original_File_name= C:\alexesca\data\Noise]\Attempt1_40Cu111014.xps 
Instrument= HP ESCA West
Date= 11-12-2014
Time=  10:43:55

[ Layer Parameters ]
Layer_Type= XPS

[ Region 1 Parameters ]
Region_Description = Fixed552eV                         
BEcenter(eV) = 552.000000
BEwidth(eV) = 9.200000
BEstep(eV) = 0.035938
Dwell_Time(sec) = 1.000000
N_o_scans = 1000  
N_o_Channels = 256  
Scan_mode = 1  (FIXED)

[ Region 2 Parameters ]
Region_Description = Fixed552eV                         
BEcenter(eV) = 552.000000
BEwidth(eV) = 9.200000
BEstep(eV) = 0.035938
Dwell_Time(sec) = 1.000000
N_o_scans = 1000  
N_o_Channels = 256  
Scan_mode = 1  (FIXED)

[ Region 3 Parameters ]
Region_Description = Fixed552eV                         
BEcenter(eV) = 552.000000
BEwidth(eV) = 9.200000
BEstep(eV) = 0.035938
Dwell_Time(sec) = 1.000000
N_o_scans = 1000  
N_o_Channels = 256  
Scan_mode = 1  (FIXED)

[ Region 4 Parameters ]
Region_Description = Fixed552eV                         
BEcenter(eV) = 552.000000
BEwidth(eV) = 9.200000
BEstep(eV) = 0.035938
Dwell_Time(sec) = 1.000000
N_o_scans = 1000  
N_o_Channels = 256  
Scan_mode = 1  (FIXED)

[ Region 5 Parameters ]
Region_Description = Fixed552eV                         
BEcenter(eV) = 552.000000
BEwidth(eV) = 9.200000
BEstep(eV) = 0.035938
Dwell_Time(sec) = 1.000000
N_o_scans = 1000  
N_o_Channels = 256  
Scan_mode = 1  (FIXED)

[ Region 6 Parameters ]
Region_Description = Fixed552eV                         
BEcenter(eV) = 552.000000
BEwidth(eV) = 9.200000
BEstep(eV) = 0.035938
Dwell_Time(sec) = 1.000000
N_o_scans = 1000  
N_o_Channels = 256  
Scan_mode = 1  (FIXED)

[ Region 7 Parameters ]
Region_Description = Fixed552eV                         
BEcenter(eV) = 552.000000
BEwidth(eV) = 9.200000
BEstep(eV) = 0.035938
Dwell_Time(sec) = 1.000000
N_o_scans = 1000  
N_o_Channels = 256  
Scan_mode = 1  (FIXED)

[ Region 8 Parameters ]
Region_Description = Fixed552eV                         
BEcenter(eV) = 552.000000
BEwidth(eV) = 9.200000
BEstep(eV) = 0.035938
Dwell_Time(sec) = 1.000000
N_o_scans = 1000  
N_o_Channels = 256  
Scan_mode = 1  (FIXED)

[ Region 9 Parameters ]
Region_Description = Fixed552eV                         
BEcenter(eV) = 552.000000
BEwidth(eV) = 9.200000
BEstep(eV) = 0.035938
Dwell_Time(sec) = 1.000000
N_o_scans = 1000  
N_o_Channels = 256  
Scan_mode = 1  (FIXED)

[ Region 10 Parameters ]
Region_Description = Fixed552eV                         
BEcenter(eV) = 552.000000
BEwidth(eV) = 9.200000
BEstep(eV) = 0.035938
Dwell_Time(sec) = 1.000000
N_o_scans = 1000  
N_o_Channels = 256  
Scan_mode = 1  (FIXED)

[ L= 1 R= 1 ]
BEcenter= 552.000 
BEwidth= -9.200  
Excitation= 1486.600
Time_p_channel= 1000.000
Size= 256
556.600  1.65500000e+03 
556.564  1.76000000e+03 
556.528  1.72900000e+03 
556.492  1.72300000e+03 
556.456  1.73000000e+03 
556.420  1.63400000e+03 
556.384  1.73500000e+03 
556.347  1.67200000e+03 
556.311  1.72800000e+03 
556.275  1.77300000e+03 
556.239  1.80500000e+03 
556.203  1.80500000e+03 
556.167  1.74400000e+03 
556.131  1.77200000e+03 
556.095  1.80100000e+03 
556.059  1.88500000e+03 
556.023  1.84300000e+03 
555.987  1.77300000e+03 
555.951  1.83500000e+03 
555.915  1.79000000e+03 
555.878  1.72900000e+03 
555.842  1.72000000e+03 
555.806  1.74900000e+03 
555.770  1.80100000e+03 
555.734  1.80100000e+03 
555.698  1.85400000e+03 
555.662  1.84000000e+03 
555.626  1.86800000e+03 
555.590  1.91200000e+03 
555.554  1.81100000e+03 
555.518  1.87700000e+03 
555.482  1.81700000e+03 
555.445  1.84800000e+03 
555.409  1.89500000e+03 
555.373  1.82600000e+03 
555.337  1.85700000e+03 
555.301  1.89200000e+03 
555.265  1.88400000e+03 
555.229  1.89100000e+03 
555.193  1.85500000e+03 
555.157  1.85400000e+03 
555.121  1.90800000e+03 
555.085  1.91500000e+03 
555.049  1.91300000e+03 
555.013  1.92200000e+03 
554.976  1.94700000e+03 
554.940  1.83000000e+03 
554.904  1.93700000e+03 
554.868  1.88500000e+03 
554.832  1.99700000e+03 
554.796  1.99500000e+03 
554.760  2.00000000e+03 
554.724  2.04100000e+03 
554.688  1.97300000e+03 
554.652  1.94600000e+03 
554.616  1.95900000e+03 
554.580  1.96000000e+03 
554.544  1.98800000e+03 
554.507  1.95100000e+03 
554.471  1.94600000e+03 
554.435  2.00200000e+03 
554.399  1.86400000e+03 
554.363  1.96200000e+03 
554.327  1.95200000e+03 
554.291  1.95500000e+03 
554.255  1.97200000e+03 
554.219  1.99900000e+03 
554.183  1.94600000e+03 
554.147  2.04100000e+03 
554.111  1.93500000e+03 
554.075  2.04500000e+03 
554.038  1.94800000e+03 
554.002  1.97400000e+03 
553.966  2.04500000e+03 
553.930  2.02900000e+03 
553.894  2.08800000e+03 
553.858  2.08400000e+03 
553.822  2.09800000e+03 
553.786  2.08900000e+03 
553.750  2.04000000e+03 
553.714  2.12900000e+03 
553.678  2.15900000e+03 
553.642  2.09600000e+03 
553.605  2.05800000e+03 
553.569  2.07800000e+03 
553.533  2.11200000e+03 
553.497  2.24800000e+03 
553.461  2.11400000e+03 
553.425  2.08100000e+03 
553.389  2.01900000e+03 
553.353  2.12200000e+03 
553.317  2.16000000e+03 
553.281  2.11000000e+03 
553.245  2.08100000e+03 
553.209  2.07200000e+03 
553.173  2.02200000e+03 
553.136  2.02700000e+03 
553.100  2.03400000e+03 
553.064  2.05100000e+03 
553.028  2.06600000e+03 
552.992  2.05500000e+03 
552.956  1.99300000e+03 
552.920  1.98200000e+03 
552.884  2.02300000e+03 
552.848  2.00100000e+03 
552.812  2.05700000e+03 
552.776  2.05700000e+03 
552.740  2.08200000e+03 
552.704  2.02100000e+03 
552.667  1.98000000e+03 
552.631  2.02300000e+03 
552.595  1.99200000e+03 
552.559  1.91600000e+03 
552.523  1.94800000e+03 
552.487  1.94100000e+03 
552.451  1.96000000e+03 
552.415  1.97200000e+03 
552.379  1.92000000e+03 
552.343  2.00900000e+03 
552.307  2.06200000e+03 
552.271  1.93400000e+03 
552.235  1.84400000e+03 
552.198  1.93900000e+03 
552.162  1.86500000e+03 
552.126  1.88800000e+03 
552.090  1.92000000e+03 
552.054  1.90700000e+03 
552.018  1.89900000e+03 
551.982  1.86500000e+03 
551.946  1.85300000e+03 
551.910  1.84600000e+03 
551.874  1.88200000e+03 
551.838  1.80400000e+03 
551.802  1.80900000e+03 
551.765  1.78600000e+03 
551.729  1.82800000e+03 
551.693  1.86600000e+03 
551.657  1.77900000e+03 
551.621  1.82800000e+03 
551.585  1.87500000e+03 
551.549  1.81600000e+03 
551.513  1.82600000e+03 
551.477  1.78600000e+03 
551.441  1.72500000e+03 
551.405  1.84000000e+03 
551.369  1.82300000e+03 
551.333  1.85700000e+03 
551.296  1.78500000e+03 
551.260  1.78000000e+03 
551.224  1.76100000e+03 
551.188  1.77500000e+03 
551.152  1.79100000e+03 
551.116  1.77200000e+03 
551.080  1.80200000e+03 
551.044  1.79800000e+03 
551.008  1.68700000e+03 
550.972  1.74500000e+03 
550.936  1.73700000e+03 
550.900  1.69100000e+03 
550.864  1.67700000e+03 
550.827  1.73400000e+03 
550.791  1.79600000e+03 
550.755  1.61300000e+03 
550.719  1.66100000e+03 
550.683  1.77200000e+03 
550.647  1.68500000e+03 
550.611  1.64900000e+03 
550.575  1.64500000e+03 
550.539  1.69500000e+03 
550.503  1.61300000e+03 
550.467  1.64900000e+03 
550.431  1.70600000e+03 
550.395  1.63500000e+03 
550.358  1.66700000e+03 
550.322  1.63100000e+03 
550.286  1.67200000e+03 
550.250  1.59200000e+03 
550.214  1.69600000e+03 
550.178  1.63200000e+03 
550.142  1.66300000e+03 
550.106  1.63400000e+03 
550.070  1.66600000e+03 
550.034  1.63500000e+03 
549.998  1.58200000e+03 
549.962  1.68400000e+03 
549.925  1.60000000e+03 
549.889  1.56600000e+03 
549.853  1.66800000e+03 
549.817  1.59500000e+03 
549.781  1.60000000e+03 
549.745  1.60800000e+03 
549.709  1.57000000e+03 
549.673  1.55000000e+03 
549.637  1.54500000e+03 
549.601  1.50800000e+03 
549.565  1.52200000e+03 
549.529  1.56200000e+03 
549.493  1.52900000e+03 
549.456  1.51800000e+03 
549.420  1.51100000e+03 
549.384  1.50900000e+03 
549.348  1.50000000e+03 
549.312  1.41600000e+03 
549.276  1.56000000e+03 
549.240  1.43600000e+03 
549.204  1.53100000e+03 
549.168  1.48900000e+03 
549.132  1.41700000e+03 
549.096  1.44500000e+03 
549.060  1.44600000e+03 
549.024  1.44900000e+03 
548.987  1.46200000e+03 
548.951  1.44400000e+03 
548.915  1.37500000e+03 
548.879  1.35500000e+03 
548.843  1.42000000e+03 
548.807  1.37300000e+03 
548.771  1.36400000e+03 
548.735  1.37200000e+03 
548.699  1.34900000e+03 
548.663  1.37200000e+03 
548.627  1.37700000e+03 
548.591  1.31600000e+03 
548.555  1.33800000e+03 
548.518  1.37800000e+03 
548.482  1.39500000e+03 
548.446  1.30000000e+03 
548.410  1.27400000e+03 
548.374  1.36300000e+03 
548.338  1.30200000e+03 
548.302  1.32500000e+03 
548.266  1.28000000e+03 
548.230  1.30500000e+03 
548.194  1.37000000e+03 
548.158  1.31800000e+03 
548.122  1.28900000e+03 
548.085  1.22700000e+03 
548.049  1.26800000e+03 
548.013  1.23900000e+03 
547.977  1.24100000e+03 
547.941  1.24100000e+03 
547.905  1.24200000e+03 
547.869  1.23300000e+03 
547.833  1.09800000e+03 
547.797  1.21300000e+03 
547.761  9.54000000e+02 
547.725  1.02600000e+03 
547.689  1.04300000e+03 
547.653  8.81000000e+02 
547.616  9.42000000e+02 
547.580  9.13000000e+02 
547.544  7.09000000e+02 
547.508  6.46000000e+02 
547.472  3.28000000e+02 
547.436  0.00000000e+00 
547.400  0.00000000e+00 

[ L= 1 R= 2 ]
BEcenter= 552.000 
BEwidth= -9.200  
Excitation= 1486.600
Time_p_channel= 1000.000
Size= 256
556.600  1.65100000e+03 
556.564  1.68400000e+03 
556.528  1.81500000e+03 
556.492  1.73900000e+03 
556.456  1.72100000e+03 
556.420  1.82100000e+03 
556.384  1.80100000e+03 
556.347  1.78000000e+03 
556.311  1.72500000e+03 
556.275  1.76800000e+03 
556.239  1.77100000e+03 
556.203  1.81000000e+03 
556.167  1.79400000e+03 
556.131  1.78500000e+03 
556.095  1.82200000e+03 
556.059  1.83000000e+03 
556.023  1.74400000e+03 
555.987  1.85300000e+03 
555.951  1.78400000e+03 
555.915  1.77500000e+03 
555.878  1.81400000e+03 
555.842  1.85000000e+03 
555.806  1.77600000e+03 
555.770  1.84000000e+03 
555.734  1.84300000e+03 
555.698  1.81600000e+03 
555.662  1.75900000e+03 
555.626  1.87900000e+03 
555.590  1.82400000e+03 
555.554  1.80800000e+03 
555.518  1.87300000e+03 
555.482  1.87900000e+03 
555.445  1.82400000e+03 
555.409  1.83800000e+03 
555.373  1.91700000e+03 
555.337  1.88900000e+03 
555.301  1.86700000e+03 
555.265  1.97100000e+03 
555.229  1.90300000e+03 
555.193  1.91300000e+03 
555.157  1.91300000e+03 
555.121  1.90200000e+03 
555.085  1.91100000e+03 
555.049  1.91500000e+03 
555.013  1.95900000e+03 
554.976  1.94000000e+03 
554.940  1.84800000e+03 
554.904  1.87800000e+03 
554.868  1.97400000e+03 
554.832  2.04500000e+03 
554.796  1.92600000e+03 
554.760  2.01500000e+03 
554.724  1.97100000e+03 
554.688  1.98100000e+03 
554.652  1.96800000e+03 
554.616  2.05300000e+03 
554.580  2.02600000e+03 
554.544  1.96700000e+03 
554.507  1.92900000e+03 
554.471  2.01400000e+03 
554.435  1.96000000e+03 
554.399  1.92300000e+03 
554.363  2.02900000e+03 
554.327  1.99400000e+03 
554.291  1.98500000e+03 
554.255  1.96800000e+03 
554.219  1.97300000e+03 
554.183  1.95000000e+03 
554.147  1.93300000e+03 
554.111  1.97100000e+03 
554.075  2.01200000e+03 
554.038  2.01100000e+03 
554.002  2.07900000e+03 
553.966  2.09400000e+03 
553.930  1.99900000e+03 
553.894  2.08000000e+03 
553.858  2.08400000e+03 
553.822  1.99200000e+03 
553.786  2.04900000e+03 
553.750  2.08100000e+03 
553.714  2.09900000e+03 
553.678  2.13200000e+03 
553.642  2.07400000e+03 
553.605  2.09000000e+03 
553.569  2.16600000e+03 
553.533  2.18600000e+03 
553.497  2.16700000e+03 
553.461  2.19900000e+03 
553.425  2.09200000e+03 
553.389  2.07800000e+03 
553.353  2.11200000e+03 
553.317  2.12100000e+03 
553.281  2.11300000e+03 
553.245  2.10900000e+03 
553.209  2.08400000e+03 
553.173  2.06800000e+03 
553.136  1.96600000e+03 
553.100  2.08000000e+03 
553.064  2.06700000e+03 
553.028  2.06200000e+03 
552.992  2.07100000e+03 
552.956  1.98400000e+03 
552.920  1.96000000e+03 
552.884  2.03100000e+03 
552.848  2.02700000e+03 
552.812  2.12000000e+03 
552.776  2.03900000e+03 
552.740  1.97600000e+03 
552.704  1.99500000e+03 
552.667  1.90700000e+03 
552.631  1.98100000e+03 
552.595  1.97000000e+03 
552.559  1.98500000e+03 
552.523  1.99500000e+03 
552.487  1.85000000e+03 
552.451  2.00700000e+03 
552.415  1.86600000e+03 
552.379  1.92400000e+03 
552.343  1.87300000e+03 
552.307  1.96500000e+03 
552.271  2.01300000e+03 
552.235  1.96000000e+03 
552.198  1.91800000e+03 
552.162  1.89700000e+03 
552.126  1.90700000e+03 
552.090  1.90400000e+03 
552.054  1.86000000e+03 
552.018  1.87300000e+03 
551.982  1.87800000e+03 
551.946  1.84500000e+03 
551.910  1.92400000e+03 
551.874  1.82200000e+03 
551.838  1.86400000e+03 
551.802  1.82000000e+03 
551.765  1.88000000e+03 
551.729  1.83600000e+03 
551.693  1.84600000e+03 
551.657  1.88000000e+03 
551.621  1.70200000e+03 
551.585  1.82800000e+03 
551.549  1.81700000e+03 
551.513  1.81600000e+03 
551.477  1.83100000e+03 
551.441  1.85500000e+03 
551.405  1.79700000e+03 
551.369  1.81400000e+03 
551.333  1.76300000e+03 
551.296  1.78600000e+03 
551.260  1.77900000e+03 
551.224  1.80100000e+03 
551.188  1.73100000e+03 
551.152  1.82500000e+03 
551.116  1.66900000e+03 
551.080  1.75500000e+03 
551.044  1.81300000e+03 
551.008  1.71300000e+03 
550.972  1.75800000e+03 
550.936  1.73500000e+03 
550.900  1.66400000e+03 
550.864  1.81700000e+03 
550.827  1.65000000e+03 
550.791  1.65100000e+03 
550.755  1.65600000e+03 
550.719  1.67000000e+03 
550.683  1.74500000e+03 
550.647  1.70600000e+03 
550.611  1.61100000e+03 
550.575  1.68500000e+03 
550.539  1.67000000e+03 
550.503  1.64400000e+03 
550.467  1.65900000e+03 
550.431  1.61100000e+03 
550.395  1.62300000e+03 
550.358  1.61400000e+03 
550.322  1.67100000e+03 
550.286  1.67200000e+03 
550.250  1.66900000e+03 
550.214  1.77000000e+03 
550.178  1.66400000e+03 
550.142  1.62700000e+03 
550.106  1.62600000e+03 
550.070  1.67200000e+03 
550.034  1.69500000e+03 
549.998  1.70300000e+03 
549.962  1.71700000e+03 
549.925  1.70900000e+03 
549.889  1.54900000e+03 
549.853  1.57400000e+03 
549.817  1.58800000e+03 
549.781  1.63500000e+03 
549.745  1.55400000e+03 
549.709  1.58100000e+03 
549.673  1.58900000e+03 
549.637  1.59000000e+03 
549.601  1.57300000e+03 
549.565  1.55200000e+03 
549.529  1.54200000e+03 
549.493  1.55500000e+03 
549.456  1.57100000e+03 
549.420  1.43900000e+03 
549.384  1.43600000e+03 
549.348  1.49300000e+03 
549.312  1.47900000e+03 
549.276  1.49600000e+03 
549.240  1.51400000e+03 
549.204  1.50600000e+03 
549.168  1.41900000e+03 
549.132  1.46200000e+03 
549.096  1.53600000e+03 
549.060  1.48500000e+03 
549.024  1.40900000e+03 
548.987  1.40100000e+03 
548.951  1.38900000e+03 
548.915  1.42900000e+03 
548.879  1.39600000e+03 
548.843  1.37500000e+03 
548.807  1.36000000e+03 
548.771  1.38300000e+03 
548.735  1.43000000e+03 
548.699  1.43200000e+03 
548.663  1.28600000e+03 
548.627  1.37700000e+03 
548.591  1.42000000e+03 
548.555  1.34200000e+03 
548.518  1.37300000e+03 
548.482  1.29800000e+03 
548.446  1.36700000e+03 
548.410  1.31800000e+03 
548.374  1.30000000e+03 
548.338  1.27300000e+03 
548.302  1.31100000e+03 
548.266  1.28100000e+03 
548.230  1.28900000e+03 
548.194  1.34100000e+03 
548.158  1.29900000e+03 
548.122  1.29900000e+03 
548.085  1.21800000e+03 
548.049  1.28200000e+03 
548.013  1.27300000e+03 
547.977  1.25400000e+03 
547.941  1.31300000e+03 
547.905  1.27200000e+03 
547.869  1.20000000e+03 
547.833  1.11700000e+03 
547.797  1.21200000e+03 
547.761  1.01900000e+03 
547.725  9.55000000e+02 
547.689  1.04600000e+03 
547.653  8.18000000e+02 
547.616  9.94000000e+02 
547.580  9.60000000e+02 
547.544  7.27000000e+02 
547.508  5.68000000e+02 
547.472  2.96000000e+02 
547.436  0.00000000e+00 
547.400  0.00000000e+00 

[ L= 1 R= 3 ]
BEcenter= 552.000 
BEwidth= -9.200  
Excitation= 1486.600
Time_p_channel= 1000.000
Size= 256
556.600  1.66400000e+03 
556.564  1.68600000e+03 
556.528  1.65500000e+03 
556.492  1.73500000e+03 
556.456  1.72100000e+03 
556.420  1.69000000e+03 
556.384  1.78400000e+03 
556.347  1.76600000e+03 
556.311  1.85400000e+03 
556.275  1.71600000e+03 
556.239  1.84100000e+03 
556.203  1.74800000e+03 
556.167  1.77500000e+03 
556.131  1.74600000e+03 
556.095  1.77100000e+03 
556.059  1.88100000e+03 
556.023  1.72600000e+03 
555.987  1.75600000e+03 
555.951  1.80900000e+03 
555.915  1.86900000e+03 
555.878  1.83700000e+03 
555.842  1.84500000e+03 
555.806  1.81300000e+03 
555.770  1.77200000e+03 
555.734  1.82100000e+03 
555.698  1.82600000e+03 
555.662  1.83900000e+03 
555.626  1.84900000e+03 
555.590  1.86900000e+03 
555.554  1.88800000e+03 
555.518  1.80200000e+03 
555.482  1.87300000e+03 
555.445  1.88200000e+03 
555.409  1.85600000e+03 
555.373  1.85500000e+03 
555.337  1.88700000e+03 
555.301  1.95700000e+03 
555.265  1.91800000e+03 
555.229  1.96200000e+03 
555.193  1.86400000e+03 
555.157  1.94800000e+03 
555.121  1.95100000e+03 
555.085  1.88000000e+03 
555.049  1.87900000e+03 
555.013  1.91700000e+03 
554.976  1.90900000e+03 
554.940  1.88800000e+03 
554.904  1.95600000e+03 
554.868  1.95300000e+03 
554.832  1.95700000e+03 
554.796  1.91400000e+03 
554.760  1.98900000e+03 
554.724  2.05300000e+03 
554.688  1.98300000e+03 
554.652  2.04400000e+03 
554.616  1.97300000e+03 
554.580  2.01600000e+03 
554.544  1.90100000e+03 
554.507  1.95400000e+03 
554.471  1.95100000e+03 
554.435  1.92200000e+03 
554.399  2.00300000e+03 
554.363  1.99400000e+03 
554.327  1.99800000e+03 
554.291  1.95300000e+03 
554.255  2.00600000e+03 
554.219  1.97800000e+03 
554.183  2.06700000e+03 
554.147  1.93400000e+03 
554.111  1.95700000e+03 
554.075  2.04800000e+03 
554.038  1.99300000e+03 
554.002  2.00500000e+03 
553.966  1.98800000e+03 
553.930  2.03700000e+03 
553.894  2.04700000e+03 
553.858  2.04100000e+03 
553.822  2.12800000e+03 
553.786  2.09400000e+03 
553.750  1.98600000e+03 
553.714  2.06800000e+03 
553.678  2.15800000e+03 
553.642  2.18900000e+03 
553.605  2.10200000e+03 
553.569  2.14900000e+03 
553.533  2.17000000e+03 
553.497  2.18600000e+03 
553.461  2.05300000e+03 
553.425  2.09100000e+03 
553.389  2.09600000e+03 
553.353  2.07600000e+03 
553.317  2.08800000e+03 
553.281  2.00900000e+03 
553.245  2.11100000e+03 
553.209  2.04600000e+03 
553.173  2.08800000e+03 
553.136  2.07000000e+03 
553.100  2.12700000e+03 
553.064  2.02300000e+03 
553.028  2.02700000e+03 
552.992  2.04700000e+03 
552.956  2.01800000e+03 
552.920  1.98600000e+03 
552.884  2.07400000e+03 
552.848  1.96000000e+03 
552.812  1.97500000e+03 
552.776  1.97800000e+03 
552.740  1.97000000e+03 
552.704  2.02500000e+03 
552.667  1.90500000e+03 
552.631  1.94400000e+03 
552.595  1.90700000e+03 
552.559  1.91200000e+03 
552.523  1.96800000e+03 
552.487  2.04300000e+03 
552.451  1.94100000e+03 
552.415  1.88200000e+03 
552.379  1.93100000e+03 
552.343  1.93800000e+03 
552.307  1.94400000e+03 
552.271  1.87600000e+03 
552.235  1.92700000e+03 
552.198  1.87500000e+03 
552.162  1.95600000e+03 
552.126  1.88200000e+03 
552.090  1.89200000e+03 
552.054  1.96900000e+03 
552.018  1.82000000e+03 
551.982  1.90900000e+03 
551.946  1.80900000e+03 
551.910  1.95300000e+03 
551.874  1.80500000e+03 
551.838  1.90400000e+03 
551.802  1.93100000e+03 
551.765  1.84900000e+03 
551.729  1.81100000e+03 
551.693  1.79000000e+03 
551.657  1.85200000e+03 
551.621  1.80100000e+03 
551.585  1.78100000e+03 
551.549  1.85900000e+03 
551.513  1.85000000e+03 
551.477  1.83800000e+03 
551.441  1.77300000e+03 
551.405  1.73600000e+03 
551.369  1.82600000e+03 
551.333  1.82400000e+03 
551.296  1.82000000e+03 
551.260  1.77400000e+03 
551.224  1.79600000e+03 
551.188  1.71900000e+03 
551.152  1.70900000e+03 
551.116  1.77100000e+03 
551.080  1.73900000e+03 
551.044  1.62800000e+03 
551.008  1.74400000e+03 
550.972  1.73500000e+03 
550.936  1.80800000e+03 
550.900  1.67900000e+03 
550.864  1.68600000e+03 
550.827  1.71800000e+03 
550.791  1.65700000e+03 
550.755  1.65600000e+03 
550.719  1.67400000e+03 
550.683  1.61100000e+03 
550.647  1.68500000e+03 
550.611  1.65800000e+03 
550.575  1.67700000e+03 
550.539  1.56600000e+03 
550.503  1.57700000e+03 
550.467  1.68100000e+03 
550.431  1.67000000e+03 
550.395  1.64700000e+03 
550.358  1.58900000e+03 
550.322  1.65400000e+03 
550.286  1.68200000e+03 
550.250  1.66300000e+03 
550.214  1.67300000e+03 
550.178  1.63400000e+03 
550.142  1.62200000e+03 
550.106  1.66200000e+03 
550.070  1.71400000e+03 
550.034  1.73000000e+03 
549.998  1.60200000e+03 
549.962  1.60900000e+03 
549.925  1.60900000e+03 
549.889  1.59300000e+03 
549.853  1.58000000e+03 
549.817  1.65600000e+03 
549.781  1.57400000e+03 
549.745  1.62100000e+03 
549.709  1.66800000e+03 
549.673  1.61000000e+03 
549.637  1.55100000e+03 
549.601  1.50400000e+03 
549.565  1.55200000e+03 
549.529  1.56100000e+03 
549.493  1.59300000e+03 
549.456  1.48200000e+03 
549.420  1.46800000e+03 
549.384  1.45400000e+03 
549.348  1.51800000e+03 
549.312  1.48000000e+03 
549.276  1.43700000e+03 
549.240  1.52500000e+03 
549.204  1.41200000e+03 
549.168  1.51700000e+03 
549.132  1.52000000e+03 
549.096  1.51300000e+03 
549.060  1.47800000e+03 
549.024  1.47000000e+03 
548.987  1.43800000e+03 
548.951  1.34100000e+03 
548.915  1.40100000e+03 
548.879  1.40100000e+03 
548.843  1.42400000e+03 
548.807  1.46700000e+03 
548.771  1.37300000e+03 
548.735  1.36200000e+03 
548.699  1.37400000e+03 
548.663  1.34500000e+03 
548.627  1.28900000e+03 
548.591  1.31000000e+03 
548.555  1.37300000e+03 
548.518  1.34300000e+03 
548.482  1.34100000e+03 
548.446  1.31300000e+03 
548.410  1.32600000e+03 
548.374  1.31900000e+03 
548.338  1.24600000e+03 
548.302  1.34700000e+03 
548.266  1.31700000e+03 
548.230  1.32400000e+03 
548.194  1.23600000e+03 
548.158  1.22700000e+03 
548.122  1.29600000e+03 
548.085  1.28600000e+03 
548.049  1.27300000e+03 
548.013  1.21400000e+03 
547.977  1.20900000e+03 
547.941  1.21600000e+03 
547.905  1.28500000e+03 
547.869  1.25900000e+03 
547.833  1.13100000e+03 
547.797  1.22500000e+03 
547.761  9.68000000e+02 
547.725  1.02400000e+03 
547.689  1.10200000e+03 
547.653  8.10000000e+02 
547.616  9.61000000e+02 
547.580  9.55000000e+02 
547.544  7.01000000e+02 
547.508  6.33000000e+02 
547.472  3.53000000e+02 
547.436  0.00000000e+00 
547.400  0.00000000e+00 

[ L= 1 R= 4 ]
BEcenter= 552.000 
BEwidth= -9.200  
Excitation= 1486.600
Time_p_channel= 1000.000
Size= 256
556.600  1.64000000e+03 
556.564  1.67800000e+03 
556.528  1.65200000e+03 
556.492  1.69800000e+03 
556.456  1.74900000e+03 
556.420  1.81100000e+03 
556.384  1.76200000e+03 
556.347  1.78200000e+03 
556.311  1.75200000e+03 
556.275  1.80300000e+03 
556.239  1.81000000e+03 
556.203  1.70700000e+03 
556.167  1.72100000e+03 
556.131  1.72700000e+03 
556.095  1.70600000e+03 
556.059  1.76300000e+03 
556.023  1.74200000e+03 
555.987  1.74500000e+03 
555.951  1.80900000e+03 
555.915  1.87000000e+03 
555.878  1.73900000e+03 
555.842  1.79200000e+03 
555.806  1.81700000e+03 
555.770  1.73200000e+03 
555.734  1.78900000e+03 
555.698  1.82300000e+03 
555.662  1.84300000e+03 
555.626  1.75500000e+03 
555.590  1.83900000e+03 
555.554  1.88000000e+03 
555.518  1.87100000e+03 
555.482  1.86500000e+03 
555.445  1.79400000e+03 
555.409  1.86300000e+03 
555.373  1.93600000e+03 
555.337  1.97100000e+03 
555.301  1.82000000e+03 
555.265  1.92400000e+03 
555.229  1.96300000e+03 
555.193  1.81700000e+03 
555.157  1.95000000e+03 
555.121  1.93700000e+03 
555.085  1.91700000e+03 
555.049  1.89800000e+03 
555.013  1.88200000e+03 
554.976  1.94300000e+03 
554.940  1.95800000e+03 
554.904  1.94200000e+03 
554.868  1.95900000e+03 
554.832  1.88900000e+03 
554.796  1.88600000e+03 
554.760  1.98900000e+03 
554.724  1.98200000e+03 
554.688  1.95400000e+03 
554.652  1.91500000e+03 
554.616  2.03500000e+03 
554.580  1.89300000e+03 
554.544  1.96100000e+03 
554.507  2.02500000e+03 
554.471  1.87700000e+03 
554.435  1.98700000e+03 
554.399  1.93200000e+03 
554.363  2.01100000e+03 
554.327  2.01700000e+03 
554.291  1.94100000e+03 
554.255  2.00100000e+03 
554.219  1.90600000e+03 
554.183  2.00000000e+03 
554.147  1.85700000e+03 
554.111  2.10900000e+03 
554.075  2.03400000e+03 
554.038  2.05400000e+03 
554.002  2.03100000e+03 
553.966  2.07500000e+03 
553.930  2.04300000e+03 
553.894  2.01700000e+03 
553.858  2.15500000e+03 
553.822  2.03700000e+03 
553.786  2.11600000e+03 
553.750  2.07400000e+03 
553.714  2.01500000e+03 
553.678  2.06500000e+03 
553.642  2.17900000e+03 
553.605  2.15000000e+03 
553.569  2.18400000e+03 
553.533  2.20700000e+03 
553.497  2.15000000e+03 
553.461  2.12300000e+03 
553.425  2.17700000e+03 
553.389  2.04800000e+03 
553.353  2.15600000e+03 
553.317  2.10200000e+03 
553.281  2.10500000e+03 
553.245  2.02400000e+03 
553.209  2.08400000e+03 
553.173  2.02400000e+03 
553.136  2.00600000e+03 
553.100  2.10000000e+03 
553.064  2.09600000e+03 
553.028  2.11900000e+03 
552.992  1.99000000e+03 
552.956  1.99400000e+03 
552.920  2.02000000e+03 
552.884  2.01900000e+03 
552.848  2.07100000e+03 
552.812  2.02600000e+03 
552.776  1.98800000e+03 
552.740  2.01200000e+03 
552.704  1.97100000e+03 
552.667  2.04200000e+03 
552.631  1.96400000e+03 
552.595  2.00100000e+03 
552.559  1.93100000e+03 
552.523  1.93800000e+03 
552.487  1.94100000e+03 
552.451  1.90400000e+03 
552.415  1.92300000e+03 
552.379  1.91000000e+03 
552.343  1.99300000e+03 
552.307  1.95000000e+03 
552.271  1.89200000e+03 
552.235  1.93400000e+03 
552.198  1.96300000e+03 
552.162  1.95000000e+03 
552.126  1.94200000e+03 
552.090  1.93400000e+03 
552.054  1.82800000e+03 
552.018  1.95900000e+03 
551.982  1.84100000e+03 
551.946  1.89800000e+03 
551.910  1.87800000e+03 
551.874  1.82300000e+03 
551.838  1.83500000e+03 
551.802  1.84900000e+03 
551.765  1.85900000e+03 
551.729  1.86400000e+03 
551.693  1.81400000e+03 
551.657  1.82500000e+03 
551.621  1.83000000e+03 
551.585  1.85900000e+03 
551.549  1.76200000e+03 
551.513  1.88500000e+03 
551.477  1.79800000e+03 
551.441  1.77300000e+03 
551.405  1.74000000e+03 
551.369  1.79100000e+03 
551.333  1.77000000e+03 
551.296  1.83600000e+03 
551.260  1.73600000e+03 
551.224  1.75200000e+03 
551.188  1.71300000e+03 
551.152  1.66200000e+03 
551.116  1.77300000e+03 
551.080  1.67300000e+03 
551.044  1.75400000e+03 
551.008  1.77600000e+03 
550.972  1.65800000e+03 
550.936  1.78300000e+03 
550.900  1.67700000e+03 
550.864  1.68800000e+03 
550.827  1.76300000e+03 
550.791  1.62000000e+03 
550.755  1.71100000e+03 
550.719  1.67200000e+03 
550.683  1.70800000e+03 
550.647  1.67400000e+03 
550.611  1.64500000e+03 
550.575  1.65000000e+03 
550.539  1.61200000e+03 
550.503  1.56700000e+03 
550.467  1.64800000e+03 
550.431  1.66700000e+03 
550.395  1.57400000e+03 
550.358  1.66700000e+03 
550.322  1.64000000e+03 
550.286  1.63500000e+03 
550.250  1.63600000e+03 
550.214  1.66000000e+03 
550.178  1.67000000e+03 
550.142  1.71200000e+03 
550.106  1.73500000e+03 
550.070  1.59500000e+03 
550.034  1.68800000e+03 
549.998  1.60000000e+03 
549.962  1.66600000e+03 
549.925  1.70700000e+03 
549.889  1.69000000e+03 
549.853  1.55300000e+03 
549.817  1.61100000e+03 
549.781  1.58100000e+03 
549.745  1.56100000e+03 
549.709  1.54500000e+03 
549.673  1.50800000e+03 
549.637  1.59900000e+03 
549.601  1.55300000e+03 
549.565  1.54300000e+03 
549.529  1.53700000e+03 
549.493  1.41300000e+03 
549.456  1.51800000e+03 
549.420  1.39900000e+03 
549.384  1.50400000e+03 
549.348  1.52800000e+03 
549.312  1.48000000e+03 
549.276  1.50200000e+03 
549.240  1.48800000e+03 
549.204  1.47000000e+03 
549.168  1.43500000e+03 
549.132  1.43300000e+03 
549.096  1.44400000e+03 
549.060  1.47100000e+03 
549.024  1.43600000e+03 
548.987  1.37800000e+03 
548.951  1.43100000e+03 
548.915  1.42200000e+03 
548.879  1.42100000e+03 
548.843  1.42000000e+03 
548.807  1.35700000e+03 
548.771  1.40400000e+03 
548.735  1.35200000e+03 
548.699  1.37700000e+03 
548.663  1.31200000e+03 
548.627  1.28200000e+03 
548.591  1.32800000e+03 
548.555  1.33000000e+03 
548.518  1.35500000e+03 
548.482  1.34200000e+03 
548.446  1.30900000e+03 
548.410  1.33900000e+03 
548.374  1.31600000e+03 
548.338  1.34100000e+03 
548.302  1.29500000e+03 
548.266  1.32300000e+03 
548.230  1.36100000e+03 
548.194  1.30900000e+03 
548.158  1.30500000e+03 
548.122  1.20600000e+03 
548.085  1.29500000e+03 
548.049  1.24700000e+03 
548.013  1.26300000e+03 
547.977  1.25800000e+03 
547.941  1.20800000e+03 
547.905  1.21100000e+03 
547.869  1.23300000e+03 
547.833  1.14000000e+03 
547.797  1.24100000e+03 
547.761  1.04500000e+03 
547.725  9.70000000e+02 
547.689  1.12200000e+03 
547.653  8.06000000e+02 
547.616  9.54000000e+02 
547.580  9.18000000e+02 
547.544  6.89000000e+02 
547.508  6.56000000e+02 
547.472  3.49000000e+02 
547.436  0.00000000e+00 
547.400  0.00000000e+00 

[ L= 1 R= 5 ]
BEcenter= 552.000 
BEwidth= -9.200  
Excitation= 1486.600
Time_p_channel= 1000.000
Size= 256
556.600  1.66800000e+03 
556.564  1.68600000e+03 
556.528  1.70600000e+03 
556.492  1.75200000e+03 
556.456  1.76200000e+03 
556.420  1.73900000e+03 
556.384  1.69400000e+03 
556.347  1.77700000e+03 
556.311  1.80800000e+03 
556.275  1.75600000e+03 
556.239  1.80400000e+03 
556.203  1.83500000e+03 
556.167  1.84200000e+03 
556.131  1.75200000e+03 
556.095  1.72400000e+03 
556.059  1.79000000e+03 
556.023  1.73300000e+03 
555.987  1.77700000e+03 
555.951  1.75400000e+03 
555.915  1.80100000e+03 
555.878  1.73000000e+03 
555.842  1.75800000e+03 
555.806  1.74700000e+03 
555.770  1.79300000e+03 
555.734  1.80700000e+03 
555.698  1.75900000e+03 
555.662  1.79500000e+03 
555.626  1.87400000e+03 
555.590  1.85500000e+03 
555.554  1.82400000e+03 
555.518  1.90000000e+03 
555.482  1.83400000e+03 
555.445  1.80700000e+03 
555.409  1.95200000e+03 
555.373  1.84400000e+03 
555.337  1.86900000e+03 
555.301  1.90600000e+03 
555.265  1.72400000e+03 
555.229  1.90700000e+03 
555.193  1.90700000e+03 
555.157  1.91800000e+03 
555.121  1.89300000e+03 
555.085  1.93200000e+03 
555.049  1.92200000e+03 
555.013  1.90300000e+03 
554.976  2.00900000e+03 
554.940  1.98800000e+03 
554.904  1.98900000e+03 
554.868  1.97600000e+03 
554.832  1.96900000e+03 
554.796  1.95300000e+03 
554.760  1.94300000e+03 
554.724  2.03400000e+03 
554.688  1.96800000e+03 
554.652  1.99700000e+03 
554.616  1.94300000e+03 
554.580  1.99300000e+03 
554.544  1.92200000e+03 
554.507  1.98400000e+03 
554.471  1.98700000e+03 
554.435  1.98600000e+03 
554.399  2.00900000e+03 
554.363  1.99000000e+03 
554.327  1.98000000e+03 
554.291  2.00100000e+03 
554.255  1.96400000e+03 
554.219  1.90600000e+03 
554.183  1.99300000e+03 
554.147  2.04600000e+03 
554.111  2.01900000e+03 
554.075  1.99300000e+03 
554.038  2.07300000e+03 
554.002  2.08300000e+03 
553.966  1.97100000e+03 
553.930  2.03900000e+03 
553.894  1.94700000e+03 
553.858  2.02700000e+03 
553.822  2.06400000e+03 
553.786  2.07100000e+03 
553.750  2.12400000e+03 
553.714  2.04900000e+03 
553.678  2.10300000e+03 
553.642  2.17200000e+03 
553.605  2.16100000e+03 
553.569  2.14600000e+03 
553.533  2.09400000e+03 
553.497  2.21700000e+03 
553.461  2.20900000e+03 
553.425  2.08100000e+03 
553.389  2.13300000e+03 
553.353  2.15300000e+03 
553.317  2.11100000e+03 
553.281  2.13500000e+03 
553.245  2.02600000e+03 
553.209  2.10800000e+03 
553.173  2.01000000e+03 
553.136  2.08400000e+03 
553.100  2.02400000e+03 
553.064  2.03400000e+03 
553.028  2.04300000e+03 
552.992  1.94100000e+03 
552.956  2.04800000e+03 
552.920  1.99800000e+03 
552.884  1.98000000e+03 
552.848  1.97600000e+03 
552.812  2.06200000e+03 
552.776  2.04600000e+03 
552.740  2.02700000e+03 
552.704  2.05000000e+03 
552.667  1.98500000e+03 
552.631  1.96800000e+03 
552.595  1.91700000e+03 
552.559  1.99500000e+03 
552.523  1.91600000e+03 
552.487  2.02100000e+03 
552.451  1.87400000e+03 
552.415  1.95100000e+03 
552.379  1.88900000e+03 
552.343  1.95300000e+03 
552.307  1.89900000e+03 
552.271  1.88000000e+03 
552.235  1.96300000e+03 
552.198  1.83500000e+03 
552.162  1.91100000e+03 
552.126  1.90500000e+03 
552.090  1.93100000e+03 
552.054  1.89900000e+03 
552.018  1.88900000e+03 
551.982  1.86300000e+03 
551.946  1.87500000e+03 
551.910  1.83200000e+03 
551.874  1.88500000e+03 
551.838  1.87000000e+03 
551.802  1.89100000e+03 
551.765  1.84100000e+03 
551.729  1.84800000e+03 
551.693  1.82000000e+03 
551.657  1.77700000e+03 
551.621  1.75700000e+03 
551.585  1.85200000e+03 
551.549  1.82900000e+03 
551.513  1.79600000e+03 
551.477  1.84200000e+03 
551.441  1.82200000e+03 
551.405  1.81900000e+03 
551.369  1.77000000e+03 
551.333  1.74500000e+03 
551.296  1.78200000e+03 
551.260  1.80800000e+03 
551.224  1.78800000e+03 
551.188  1.79400000e+03 
551.152  1.80600000e+03 
551.116  1.70800000e+03 
551.080  1.68700000e+03 
551.044  1.69600000e+03 
551.008  1.79300000e+03 
550.972  1.74100000e+03 
550.936  1.70000000e+03 
550.900  1.73000000e+03 
550.864  1.72400000e+03 
550.827  1.74900000e+03 
550.791  1.71200000e+03 
550.755  1.70700000e+03 
550.719  1.66800000e+03 
550.683  1.72300000e+03 
550.647  1.58400000e+03 
550.611  1.60200000e+03 
550.575  1.62900000e+03 
550.539  1.60800000e+03 
550.503  1.63500000e+03 
550.467  1.59900000e+03 
550.431  1.70600000e+03 
550.395  1.67300000e+03 
550.358  1.61000000e+03 
550.322  1.58600000e+03 
550.286  1.70600000e+03 
550.250  1.64000000e+03 
550.214  1.75700000e+03 
550.178  1.63100000e+03 
550.142  1.68100000e+03 
550.106  1.67400000e+03 
550.070  1.69800000e+03 
550.034  1.62400000e+03 
549.998  1.62800000e+03 
549.962  1.55900000e+03 
549.925  1.62200000e+03 
549.889  1.55500000e+03 
549.853  1.59600000e+03 
549.817  1.58900000e+03 
549.781  1.68800000e+03 
549.745  1.61300000e+03 
549.709  1.61100000e+03 
549.673  1.61200000e+03 
549.637  1.53500000e+03 
549.601  1.57600000e+03 
549.565  1.51700000e+03 
549.529  1.56800000e+03 
549.493  1.55300000e+03 
549.456  1.51800000e+03 
549.420  1.52800000e+03 
549.384  1.49800000e+03 
549.348  1.41800000e+03 
549.312  1.41900000e+03 
549.276  1.53100000e+03 
549.240  1.46200000e+03 
549.204  1.41500000e+03 
549.168  1.42200000e+03 
549.132  1.48700000e+03 
549.096  1.40800000e+03 
549.060  1.42400000e+03 
549.024  1.39200000e+03 
548.987  1.49000000e+03 
548.951  1.42700000e+03 
548.915  1.40000000e+03 
548.879  1.43700000e+03 
548.843  1.39300000e+03 
548.807  1.38800000e+03 
548.771  1.25900000e+03 
548.735  1.32800000e+03 
548.699  1.37000000e+03 
548.663  1.34100000e+03 
548.627  1.37400000e+03 
548.591  1.33800000e+03 
548.555  1.36600000e+03 
548.518  1.33400000e+03 
548.482  1.27800000e+03 
548.446  1.37800000e+03 
548.410  1.40500000e+03 
548.374  1.36100000e+03 
548.338  1.31300000e+03 
548.302  1.26700000e+03 
548.266  1.35800000e+03 
548.230  1.30400000e+03 
548.194  1.24800000e+03 
548.158  1.28200000e+03 
548.122  1.29300000e+03 
548.085  1.27800000e+03 
548.049  1.29200000e+03 
548.013  1.19400000e+03 
547.977  1.20900000e+03 
547.941  1.20400000e+03 
547.905  1.32200000e+03 
547.869  1.21800000e+03 
547.833  1.08900000e+03 
547.797  1.27300000e+03 
547.761  1.01500000e+03 
547.725  1.00400000e+03 
547.689  1.11100000e+03 
547.653  8.16000000e+02 
547.616  9.39000000e+02 
547.580  9.27000000e+02 
547.544  6.82000000e+02 
547.508  6.71000000e+02 
547.472  3.54000000e+02 
547.436  0.00000000e+00 
547.400  0.00000000e+00 

[ L= 1 R= 6 ]
BEcenter= 552.000 
BEwidth= -9.200  
Excitation= 1486.600
Time_p_channel= 1000.000
Size= 256
556.600  1.72200000e+03 
556.564  1.68900000e+03 
556.528  1.70900000e+03 
556.492  1.74900000e+03 
556.456  1.70300000e+03 
556.420  1.77600000e+03 
556.384  1.75500000e+03 
556.347  1.80300000e+03 
556.311  1.75600000e+03 
556.275  1.72500000e+03 
556.239  1.76000000e+03 
556.203  1.77600000e+03 
556.167  1.81800000e+03 
556.131  1.79600000e+03 
556.095  1.78600000e+03 
556.059  1.71200000e+03 
556.023  1.75100000e+03 
555.987  1.75700000e+03 
555.951  1.78000000e+03 
555.915  1.79100000e+03 
555.878  1.76700000e+03 
555.842  1.79200000e+03 
555.806  1.80700000e+03 
555.770  1.83100000e+03 
555.734  1.81900000e+03 
555.698  1.84000000e+03 
555.662  1.77800000e+03 
555.626  1.79300000e+03 
555.590  1.76100000e+03 
555.554  1.83900000e+03 
555.518  1.87800000e+03 
555.482  1.84700000e+03 
555.445  1.85700000e+03 
555.409  1.82500000e+03 
555.373  1.80600000e+03 
555.337  1.87100000e+03 
555.301  1.89100000e+03 
555.265  1.84300000e+03 
555.229  1.84900000e+03 
555.193  1.87100000e+03 
555.157  1.97200000e+03 
555.121  1.88200000e+03 
555.085  1.93700000e+03 
555.049  1.89900000e+03 
555.013  1.92500000e+03 
554.976  1.95800000e+03 
554.940  1.85900000e+03 
554.904  1.96300000e+03 
554.868  1.91600000e+03 
554.832  1.97800000e+03 
554.796  1.99400000e+03 
554.760  1.93300000e+03 
554.724  2.00000000e+03 
554.688  1.95700000e+03 
554.652  1.99800000e+03 
554.616  1.97000000e+03 
554.580  1.97400000e+03 
554.544  2.00300000e+03 
554.507  1.98300000e+03 
554.471  1.98100000e+03 
554.435  1.92600000e+03 
554.399  1.94500000e+03 
554.363  1.96400000e+03 
554.327  2.01800000e+03 
554.291  2.00300000e+03 
554.255  1.96400000e+03 
554.219  1.97600000e+03 
554.183  2.02500000e+03 
554.147  2.01100000e+03 
554.111  2.01300000e+03 
554.075  2.01800000e+03 
554.038  2.04000000e+03 
554.002  2.04800000e+03 
553.966  2.03200000e+03 
553.930  2.00900000e+03 
553.894  2.05100000e+03 
553.858  2.08500000e+03 
553.822  2.09100000e+03 
553.786  2.03200000e+03 
553.750  2.07200000e+03 
553.714  2.14400000e+03 
553.678  2.15400000e+03 
553.642  2.07100000e+03 
553.605  2.09400000e+03 
553.569  2.17700000e+03 
553.533  2.15600000e+03 
553.497  2.21500000e+03 
553.461  2.18400000e+03 
553.425  2.23900000e+03 
553.389  2.01000000e+03 
553.353  2.14700000e+03 
553.317  2.09800000e+03 
553.281  2.10800000e+03 
553.245  2.10300000e+03 
553.209  2.03300000e+03 
553.173  2.00400000e+03 
553.136  2.06000000e+03 
553.100  2.09000000e+03 
553.064  2.02700000e+03 
553.028  2.03200000e+03 
552.992  2.04600000e+03 
552.956  1.94100000e+03 
552.920  2.04100000e+03 
552.884  1.99400000e+03 
552.848  1.93700000e+03 
552.812  2.01900000e+03 
552.776  1.97200000e+03 
552.740  2.07600000e+03 
552.704  1.95900000e+03 
552.667  1.88100000e+03 
552.631  2.03700000e+03 
552.595  1.93200000e+03 
552.559  1.92500000e+03 
552.523  1.98800000e+03 
552.487  1.98500000e+03 
552.451  2.02000000e+03 
552.415  2.01900000e+03 
552.379  1.90000000e+03 
552.343  1.97200000e+03 
552.307  1.87100000e+03 
552.271  1.95900000e+03 
552.235  1.98200000e+03 
552.198  1.97200000e+03 
552.162  1.92300000e+03 
552.126  1.86500000e+03 
552.090  1.87300000e+03 
552.054  1.95600000e+03 
552.018  1.90600000e+03 
551.982  1.82000000e+03 
551.946  1.87700000e+03 
551.910  1.94500000e+03 
551.874  1.86100000e+03 
551.838  1.85600000e+03 
551.802  1.82700000e+03 
551.765  1.87800000e+03 
551.729  1.86700000e+03 
551.693  1.85200000e+03 
551.657  1.77400000e+03 
551.621  1.77500000e+03 
551.585  1.84800000e+03 
551.549  1.85200000e+03 
551.513  1.89700000e+03 
551.477  1.83700000e+03 
551.441  1.84200000e+03 
551.405  1.83600000e+03 
551.369  1.80800000e+03 
551.333  1.74500000e+03 
551.296  1.80400000e+03 
551.260  1.81500000e+03 
551.224  1.78000000e+03 
551.188  1.76300000e+03 
551.152  1.67500000e+03 
551.116  1.74200000e+03 
551.080  1.68900000e+03 
551.044  1.74400000e+03 
551.008  1.74200000e+03 
550.972  1.74400000e+03 
550.936  1.75500000e+03 
550.900  1.73000000e+03 
550.864  1.70600000e+03 
550.827  1.68700000e+03 
550.791  1.72300000e+03 
550.755  1.70200000e+03 
550.719  1.67000000e+03 
550.683  1.63200000e+03 
550.647  1.67900000e+03 
550.611  1.71500000e+03 
550.575  1.62300000e+03 
550.539  1.69500000e+03 
550.503  1.68100000e+03 
550.467  1.63500000e+03 
550.431  1.63200000e+03 
550.395  1.61200000e+03 
550.358  1.68300000e+03 
550.322  1.67200000e+03 
550.286  1.67000000e+03 
550.250  1.67900000e+03 
550.214  1.58600000e+03 
550.178  1.70300000e+03 
550.142  1.63600000e+03 
550.106  1.70900000e+03 
550.070  1.67500000e+03 
550.034  1.65800000e+03 
549.998  1.67900000e+03 
549.962  1.74300000e+03 
549.925  1.69900000e+03 
549.889  1.64500000e+03 
549.853  1.53600000e+03 
549.817  1.62600000e+03 
549.781  1.58600000e+03 
549.745  1.60200000e+03 
549.709  1.55400000e+03 
549.673  1.66400000e+03 
549.637  1.62900000e+03 
549.601  1.63700000e+03 
549.565  1.47500000e+03 
549.529  1.49800000e+03 
549.493  1.50200000e+03 
549.456  1.50900000e+03 
549.420  1.47900000e+03 
549.384  1.50700000e+03 
549.348  1.53600000e+03 
549.312  1.45900000e+03 
549.276  1.49400000e+03 
549.240  1.45000000e+03 
549.204  1.43500000e+03 
549.168  1.49900000e+03 
549.132  1.48900000e+03 
549.096  1.44600000e+03 
549.060  1.45600000e+03 
549.024  1.41300000e+03 
548.987  1.47400000e+03 
548.951  1.43700000e+03 
548.915  1.41800000e+03 
548.879  1.41200000e+03 
548.843  1.37000000e+03 
548.807  1.34300000e+03 
548.771  1.38300000e+03 
548.735  1.37500000e+03 
548.699  1.37000000e+03 
548.663  1.33900000e+03 
548.627  1.38300000e+03 
548.591  1.32500000e+03 
548.555  1.32600000e+03 
548.518  1.35600000e+03 
548.482  1.34400000e+03 
548.446  1.29900000e+03 
548.410  1.37700000e+03 
548.374  1.31900000e+03 
548.338  1.40200000e+03 
548.302  1.34300000e+03 
548.266  1.39000000e+03 
548.230  1.37600000e+03 
548.194  1.33400000e+03 
548.158  1.19900000e+03 
548.122  1.31200000e+03 
548.085  1.30000000e+03 
548.049  1.23800000e+03 
548.013  1.21900000e+03 
547.977  1.19400000e+03 
547.941  1.23200000e+03 
547.905  1.25000000e+03 
547.869  1.25000000e+03 
547.833  1.20600000e+03 
547.797  1.29100000e+03 
547.761  9.63000000e+02 
547.725  9.21000000e+02 
547.689  1.13300000e+03 
547.653  8.33000000e+02 
547.616  9.70000000e+02 
547.580  9.16000000e+02 
547.544  7.05000000e+02 
547.508  6.02000000e+02 
547.472  3.39000000e+02 
547.436  0.00000000e+00 
547.400  0.00000000e+00 

[ L= 1 R= 7 ]
BEcenter= 552.000 
BEwidth= -9.200  
Excitation= 1486.600
Time_p_channel= 1000.000
Size= 256
556.600  1.67100000e+03 
556.564  1.65300000e+03 
556.528  1.71900000e+03 
556.492  1.75600000e+03 
556.456  1.80100000e+03 
556.420  1.67800000e+03 
556.384  1.71900000e+03 
556.347  1.62800000e+03 
556.311  1.69700000e+03 
556.275  1.78400000e+03 
556.239  1.72000000e+03 
556.203  1.74700000e+03 
556.167  1.79200000e+03 
556.131  1.83800000e+03 
556.095  1.84400000e+03 
556.059  1.81700000e+03 
556.023  1.63400000e+03 
555.987  1.79900000e+03 
555.951  1.76500000e+03 
555.915  1.74600000e+03 
555.878  1.81800000e+03 
555.842  1.80900000e+03 
555.806  1.84400000e+03 
555.770  1.75800000e+03 
555.734  1.85500000e+03 
555.698  1.85200000e+03 
555.662  1.83200000e+03 
555.626  1.77200000e+03 
555.590  1.85300000e+03 
555.554  1.88100000e+03 
555.518  1.81700000e+03 
555.482  1.86500000e+03 
555.445  1.83300000e+03 
555.409  1.88800000e+03 
555.373  1.82300000e+03 
555.337  1.82400000e+03 
555.301  1.87900000e+03 
555.265  1.85900000e+03 
555.229  1.92400000e+03 
555.193  1.97200000e+03 
555.157  1.87800000e+03 
555.121  1.84900000e+03 
555.085  1.92100000e+03 
555.049  1.89600000e+03 
555.013  1.90700000e+03 
554.976  1.93600000e+03 
554.940  1.91600000e+03 
554.904  1.88900000e+03 
554.868  1.92200000e+03 
554.832  1.93300000e+03 
554.796  2.02800000e+03 
554.760  1.95300000e+03 
554.724  1.94700000e+03 
554.688  2.00400000e+03 
554.652  2.01700000e+03 
554.616  1.99000000e+03 
554.580  1.96600000e+03 
554.544  1.91800000e+03 
554.507  2.12100000e+03 
554.471  2.06200000e+03 
554.435  1.94600000e+03 
554.399  1.99100000e+03 
554.363  1.95100000e+03 
554.327  1.95900000e+03 
554.291  1.92300000e+03 
554.255  1.98200000e+03 
554.219  2.01000000e+03 
554.183  1.96700000e+03 
554.147  1.99200000e+03 
554.111  1.98700000e+03 
554.075  1.91700000e+03 
554.038  2.00400000e+03 
554.002  1.99500000e+03 
553.966  2.05100000e+03 
553.930  2.05900000e+03 
553.894  2.01000000e+03 
553.858  2.05100000e+03 
553.822  2.10500000e+03 
553.786  2.14900000e+03 
553.750  2.05200000e+03 
553.714  2.15500000e+03 
553.678  2.11900000e+03 
553.642  2.13800000e+03 
553.605  2.07900000e+03 
553.569  2.03200000e+03 
553.533  2.26200000e+03 
553.497  2.18000000e+03 
553.461  2.09500000e+03 
553.425  2.19200000e+03 
553.389  2.06500000e+03 
553.353  2.10900000e+03 
553.317  2.09200000e+03 
553.281  2.04300000e+03 
553.245  2.14600000e+03 
553.209  2.09200000e+03 
553.173  2.06500000e+03 
553.136  2.06500000e+03 
553.100  1.97400000e+03 
553.064  2.03300000e+03 
553.028  2.02400000e+03 
552.992  2.01300000e+03 
552.956  1.96000000e+03 
552.920  1.99200000e+03 
552.884  2.08200000e+03 
552.848  1.99800000e+03 
552.812  2.05300000e+03 
552.776  2.04900000e+03 
552.740  1.99800000e+03 
552.704  1.97300000e+03 
552.667  1.96500000e+03 
552.631  2.03500000e+03 
552.595  2.01800000e+03 
552.559  1.98100000e+03 
552.523  1.91700000e+03 
552.487  1.91500000e+03 
552.451  1.87400000e+03 
552.415  1.95000000e+03 
552.379  1.94400000e+03 
552.343  1.89900000e+03 
552.307  1.97700000e+03 
552.271  1.99500000e+03 
552.235  1.99200000e+03 
552.198  1.99000000e+03 
552.162  1.86600000e+03 
552.126  1.92000000e+03 
552.090  1.89300000e+03 
552.054  1.92900000e+03 
552.018  1.95900000e+03 
551.982  1.95500000e+03 
551.946  1.87200000e+03 
551.910  1.94000000e+03 
551.874  1.82200000e+03 
551.838  1.76600000e+03 
551.802  1.82100000e+03 
551.765  1.82900000e+03 
551.729  1.86400000e+03 
551.693  1.81000000e+03 
551.657  1.83400000e+03 
551.621  1.79300000e+03 
551.585  1.83900000e+03 
551.549  1.81600000e+03 
551.513  1.81200000e+03 
551.477  1.81200000e+03 
551.441  1.80700000e+03 
551.405  1.78500000e+03 
551.369  1.86200000e+03 
551.333  1.72000000e+03 
551.296  1.81300000e+03 
551.260  1.72200000e+03 
551.224  1.80200000e+03 
551.188  1.75100000e+03 
551.152  1.77500000e+03 
551.116  1.66900000e+03 
551.080  1.71900000e+03 
551.044  1.80900000e+03 
551.008  1.73100000e+03 
550.972  1.78000000e+03 
550.936  1.72100000e+03 
550.900  1.66800000e+03 
550.864  1.66200000e+03 
550.827  1.79400000e+03 
550.791  1.61600000e+03 
550.755  1.71500000e+03 
550.719  1.69400000e+03 
550.683  1.70400000e+03 
550.647  1.66300000e+03 
550.611  1.70900000e+03 
550.575  1.71000000e+03 
550.539  1.63600000e+03 
550.503  1.69900000e+03 
550.467  1.58700000e+03 
550.431  1.65700000e+03 
550.395  1.63100000e+03 
550.358  1.60400000e+03 
550.322  1.61500000e+03 
550.286  1.61500000e+03 
550.250  1.60000000e+03 
550.214  1.65600000e+03 
550.178  1.63700000e+03 
550.142  1.65600000e+03 
550.106  1.64700000e+03 
550.070  1.69200000e+03 
550.034  1.59600000e+03 
549.998  1.58500000e+03 
549.962  1.66000000e+03 
549.925  1.70300000e+03 
549.889  1.64700000e+03 
549.853  1.52000000e+03 
549.817  1.58200000e+03 
549.781  1.64100000e+03 
549.745  1.62500000e+03 
549.709  1.51900000e+03 
549.673  1.55300000e+03 
549.637  1.59700000e+03 
549.601  1.57700000e+03 
549.565  1.54200000e+03 
549.529  1.51100000e+03 
549.493  1.52900000e+03 
549.456  1.47600000e+03 
549.420  1.53300000e+03 
549.384  1.51000000e+03 
549.348  1.44900000e+03 
549.312  1.57100000e+03 
549.276  1.51500000e+03 
549.240  1.46900000e+03 
549.204  1.47700000e+03 
549.168  1.46300000e+03 
549.132  1.51700000e+03 
549.096  1.45200000e+03 
549.060  1.49600000e+03 
549.024  1.47400000e+03 
548.987  1.39300000e+03 
548.951  1.37900000e+03 
548.915  1.41700000e+03 
548.879  1.40200000e+03 
548.843  1.45000000e+03 
548.807  1.36700000e+03 
548.771  1.37000000e+03 
548.735  1.37800000e+03 
548.699  1.38700000e+03 
548.663  1.38800000e+03 
548.627  1.36200000e+03 
548.591  1.33500000e+03 
548.555  1.37500000e+03 
548.518  1.25700000e+03 
548.482  1.34500000e+03 
548.446  1.30500000e+03 
548.410  1.31200000e+03 
548.374  1.31400000e+03 
548.338  1.35800000e+03 
548.302  1.30600000e+03 
548.266  1.34400000e+03 
548.230  1.34400000e+03 
548.194  1.30700000e+03 
548.158  1.32700000e+03 
548.122  1.28900000e+03 
548.085  1.23200000e+03 
548.049  1.21500000e+03 
548.013  1.33600000e+03 
547.977  1.22300000e+03 
547.941  1.28700000e+03 
547.905  1.27100000e+03 
547.869  1.20000000e+03 
547.833  1.18800000e+03 
547.797  1.26700000e+03 
547.761  9.76000000e+02 
547.725  9.49000000e+02 
547.689  1.04200000e+03 
547.653  8.76000000e+02 
547.616  9.53000000e+02 
547.580  8.86000000e+02 
547.544  6.93000000e+02 
547.508  6.08000000e+02 
547.472  3.54000000e+02 
547.436  0.00000000e+00 
547.400  0.00000000e+00 

[ L= 1 R= 8 ]
BEcenter= 552.000 
BEwidth= -9.200  
Excitation= 1486.600
Time_p_channel= 1000.000
Size= 256
556.600  1.65400000e+03 
556.564  1.65300000e+03 
556.528  1.69700000e+03 
556.492  1.79000000e+03 
556.456  1.70700000e+03 
556.420  1.73700000e+03 
556.384  1.64200000e+03 
556.347  1.73000000e+03 
556.311  1.74600000e+03 
556.275  1.79000000e+03 
556.239  1.77900000e+03 
556.203  1.79700000e+03 
556.167  1.77700000e+03 
556.131  1.76700000e+03 
556.095  1.75300000e+03 
556.059  1.75700000e+03 
556.023  1.83200000e+03 
555.987  1.76100000e+03 
555.951  1.80900000e+03 
555.915  1.73100000e+03 
555.878  1.89900000e+03 
555.842  1.80900000e+03 
555.806  1.68700000e+03 
555.770  1.77600000e+03 
555.734  1.81300000e+03 
555.698  1.77600000e+03 
555.662  1.82600000e+03 
555.626  1.88000000e+03 
555.590  1.88200000e+03 
555.554  1.85400000e+03 
555.518  1.84400000e+03 
555.482  1.85800000e+03 
555.445  1.87100000e+03 
555.409  1.87400000e+03 
555.373  1.87400000e+03 
555.337  1.83200000e+03 
555.301  1.85800000e+03 
555.265  1.90700000e+03 
555.229  1.90800000e+03 
555.193  1.86900000e+03 
555.157  1.90800000e+03 
555.121  1.94400000e+03 
555.085  1.89400000e+03 
555.049  1.88000000e+03 
555.013  1.90100000e+03 
554.976  1.94700000e+03 
554.940  1.89400000e+03 
554.904  1.95900000e+03 
554.868  1.94900000e+03 
554.832  1.98200000e+03 
554.796  1.95300000e+03 
554.760  1.99800000e+03 
554.724  1.99200000e+03 
554.688  1.96200000e+03 
554.652  2.04400000e+03 
554.616  1.94400000e+03 
554.580  2.03800000e+03 
554.544  1.95300000e+03 
554.507  2.00700000e+03 
554.471  1.98600000e+03 
554.435  1.90600000e+03 
554.399  1.95500000e+03 
554.363  1.99800000e+03 
554.327  1.97400000e+03 
554.291  2.05500000e+03 
554.255  1.92800000e+03 
554.219  1.98600000e+03 
554.183  2.03400000e+03 
554.147  2.04800000e+03 
554.111  2.02300000e+03 
554.075  2.00900000e+03 
554.038  1.95300000e+03 
554.002  2.03400000e+03 
553.966  1.96700000e+03 
553.930  2.08600000e+03 
553.894  2.11000000e+03 
553.858  2.07000000e+03 
553.822  2.07400000e+03 
553.786  2.11300000e+03 
553.750  2.12400000e+03 
553.714  2.14500000e+03 
553.678  2.12400000e+03 
553.642  2.05200000e+03 
553.605  2.15800000e+03 
553.569  2.15100000e+03 
553.533  2.17500000e+03 
553.497  2.16300000e+03 
553.461  2.15800000e+03 
553.425  2.06900000e+03 
553.389  2.08900000e+03 
553.353  2.11700000e+03 
553.317  2.01800000e+03 
553.281  2.05100000e+03 
553.245  2.11900000e+03 
553.209  1.99300000e+03 
553.173  2.04200000e+03 
553.136  2.05600000e+03 
553.100  2.04600000e+03 
553.064  2.02500000e+03 
553.028  2.00000000e+03 
552.992  2.03700000e+03 
552.956  2.05500000e+03 
552.920  1.96600000e+03 
552.884  2.02900000e+03 
552.848  1.98100000e+03 
552.812  2.02600000e+03 
552.776  2.04400000e+03 
552.740  1.93200000e+03 
552.704  2.02900000e+03 
552.667  1.93300000e+03 
552.631  1.97100000e+03 
552.595  1.90700000e+03 
552.559  1.95100000e+03 
552.523  1.81300000e+03 
552.487  1.94100000e+03 
552.451  2.01800000e+03 
552.415  1.92700000e+03 
552.379  1.92600000e+03 
552.343  1.88200000e+03 
552.307  1.97900000e+03 
552.271  1.85200000e+03 
552.235  1.89400000e+03 
552.198  1.97700000e+03 
552.162  1.95400000e+03 
552.126  1.92800000e+03 
552.090  1.95200000e+03 
552.054  1.88600000e+03 
552.018  1.91200000e+03 
551.982  1.82500000e+03 
551.946  1.82700000e+03 
551.910  1.87500000e+03 
551.874  1.81500000e+03 
551.838  1.84800000e+03 
551.802  1.82200000e+03 
551.765  1.78600000e+03 
551.729  1.82500000e+03 
551.693  1.80100000e+03 
551.657  1.84700000e+03 
551.621  1.91800000e+03 
551.585  1.83600000e+03 
551.549  1.82200000e+03 
551.513  1.84800000e+03 
551.477  1.75900000e+03 
551.441  1.80300000e+03 
551.405  1.77700000e+03 
551.369  1.74800000e+03 
551.333  1.79900000e+03 
551.296  1.71800000e+03 
551.260  1.79600000e+03 
551.224  1.86000000e+03 
551.188  1.75300000e+03 
551.152  1.75400000e+03 
551.116  1.69800000e+03 
551.080  1.78900000e+03 
551.044  1.67700000e+03 
551.008  1.74500000e+03 
550.972  1.72300000e+03 
550.936  1.81500000e+03 
550.900  1.68000000e+03 
550.864  1.64700000e+03 
550.827  1.70100000e+03 
550.791  1.68700000e+03 
550.755  1.65100000e+03 
550.719  1.69400000e+03 
550.683  1.72000000e+03 
550.647  1.67400000e+03 
550.611  1.65500000e+03 
550.575  1.68400000e+03 
550.539  1.58200000e+03 
550.503  1.55300000e+03 
550.467  1.60400000e+03 
550.431  1.64800000e+03 
550.395  1.68900000e+03 
550.358  1.66600000e+03 
550.322  1.66600000e+03 
550.286  1.60200000e+03 
550.250  1.68000000e+03 
550.214  1.65600000e+03 
550.178  1.69100000e+03 
550.142  1.63500000e+03 
550.106  1.65700000e+03 
550.070  1.68000000e+03 
550.034  1.61800000e+03 
549.998  1.62500000e+03 
549.962  1.60800000e+03 
549.925  1.64600000e+03 
549.889  1.64600000e+03 
549.853  1.60400000e+03 
549.817  1.58300000e+03 
549.781  1.59600000e+03 
549.745  1.62800000e+03 
549.709  1.55800000e+03 
549.673  1.54300000e+03 
549.637  1.53300000e+03 
549.601  1.56500000e+03 
549.565  1.60500000e+03 
549.529  1.61100000e+03 
549.493  1.48600000e+03 
549.456  1.59200000e+03 
549.420  1.51300000e+03 
549.384  1.48000000e+03 
549.348  1.55900000e+03 
549.312  1.44900000e+03 
549.276  1.49500000e+03 
549.240  1.47700000e+03 
549.204  1.47900000e+03 
549.168  1.54500000e+03 
549.132  1.47800000e+03 
549.096  1.48800000e+03 
549.060  1.37800000e+03 
549.024  1.49000000e+03 
548.987  1.44600000e+03 
548.951  1.44700000e+03 
548.915  1.45300000e+03 
548.879  1.41700000e+03 
548.843  1.40700000e+03 
548.807  1.39200000e+03 
548.771  1.33000000e+03 
548.735  1.34300000e+03 
548.699  1.34900000e+03 
548.663  1.34100000e+03 
548.627  1.32400000e+03 
548.591  1.30300000e+03 
548.555  1.26100000e+03 
548.518  1.30500000e+03 
548.482  1.35600000e+03 
548.446  1.29100000e+03 
548.410  1.33600000e+03 
548.374  1.35000000e+03 
548.338  1.29500000e+03 
548.302  1.23900000e+03 
548.266  1.33700000e+03 
548.230  1.30000000e+03 
548.194  1.22400000e+03 
548.158  1.28300000e+03 
548.122  1.27200000e+03 
548.085  1.29400000e+03 
548.049  1.24600000e+03 
548.013  1.24900000e+03 
547.977  1.23300000e+03 
547.941  1.25600000e+03 
547.905  1.29400000e+03 
547.869  1.21000000e+03 
547.833  1.17100000e+03 
547.797  1.22800000e+03 
547.761  9.61000000e+02 
547.725  9.34000000e+02 
547.689  1.10600000e+03 
547.653  8.75000000e+02 
547.616  9.22000000e+02 
547.580  9.50000000e+02 
547.544  6.97000000e+02 
547.508  6.20000000e+02 
547.472  2.96000000e+02 
547.436  0.00000000e+00 
547.400  0.00000000e+00 

[ L= 1 R= 9 ]
BEcenter= 552.000 
BEwidth= -9.200  
Excitation= 1486.600
Time_p_channel= 1000.000
Size= 256
556.600  1.64400000e+03 
556.564  1.67000000e+03 
556.528  1.74400000e+03 
556.492  1.75100000e+03 
556.456  1.67100000e+03 
556.420  1.72100000e+03 
556.384  1.75600000e+03 
556.347  1.72500000e+03 
556.311  1.73600000e+03 
556.275  1.72900000e+03 
556.239  1.77500000e+03 
556.203  1.73100000e+03 
556.167  1.76100000e+03 
556.131  1.67600000e+03 
556.095  1.79000000e+03 
556.059  1.86500000e+03 
556.023  1.78200000e+03 
555.987  1.84500000e+03 
555.951  1.84100000e+03 
555.915  1.79200000e+03 
555.878  1.76400000e+03 
555.842  1.82800000e+03 
555.806  1.85500000e+03 
555.770  1.80500000e+03 
555.734  1.81500000e+03 
555.698  1.89300000e+03 
555.662  1.85900000e+03 
555.626  1.81300000e+03 
555.590  1.77300000e+03 
555.554  1.83600000e+03 
555.518  1.82800000e+03 
555.482  1.79500000e+03 
555.445  1.85000000e+03 
555.409  1.84700000e+03 
555.373  1.89600000e+03 
555.337  1.90600000e+03 
555.301  1.84900000e+03 
555.265  1.91200000e+03 
555.229  1.88000000e+03 
555.193  1.91800000e+03 
555.157  1.95800000e+03 
555.121  1.90200000e+03 
555.085  1.75800000e+03 
555.049  1.85600000e+03 
555.013  1.91100000e+03 
554.976  1.90900000e+03 
554.940  1.85700000e+03 
554.904  1.93700000e+03 
554.868  2.03000000e+03 
554.832  2.02000000e+03 
554.796  1.94600000e+03 
554.760  1.97500000e+03 
554.724  2.03600000e+03 
554.688  2.02400000e+03 
554.652  1.97500000e+03 
554.616  1.98500000e+03 
554.580  1.98900000e+03 
554.544  2.00300000e+03 
554.507  2.03600000e+03 
554.471  1.91600000e+03 
554.435  2.00100000e+03 
554.399  1.92200000e+03 
554.363  1.83200000e+03 
554.327  1.93700000e+03 
554.291  1.96500000e+03 
554.255  1.91800000e+03 
554.219  1.97600000e+03 
554.183  2.03900000e+03 
554.147  1.99400000e+03 
554.111  1.94700000e+03 
554.075  1.92100000e+03 
554.038  1.97700000e+03 
554.002  1.98100000e+03 
553.966  2.07200000e+03 
553.930  2.08400000e+03 
553.894  2.00400000e+03 
553.858  1.99300000e+03 
553.822  2.04000000e+03 
553.786  2.05300000e+03 
553.750  2.06900000e+03 
553.714  2.12400000e+03 
553.678  2.20000000e+03 
553.642  2.05200000e+03 
553.605  2.13400000e+03 
553.569  2.21300000e+03 
553.533  2.20300000e+03 
553.497  2.08200000e+03 
553.461  2.14500000e+03 
553.425  2.14700000e+03 
553.389  2.12200000e+03 
553.353  2.23800000e+03 
553.317  2.16300000e+03 
553.281  2.04300000e+03 
553.245  2.05800000e+03 
553.209  2.07400000e+03 
553.173  1.99700000e+03 
553.136  2.10100000e+03 
553.100  2.04400000e+03 
553.064  2.14100000e+03 
553.028  2.07900000e+03 
552.992  2.05300000e+03 
552.956  2.09100000e+03 
552.920  2.07300000e+03 
552.884  1.98000000e+03 
552.848  2.04300000e+03 
552.812  1.98800000e+03 
552.776  2.00800000e+03 
552.740  2.05100000e+03 
552.704  1.95100000e+03 
552.667  1.99500000e+03 
552.631  1.86400000e+03 
552.595  1.88200000e+03 
552.559  1.99300000e+03 
552.523  1.95900000e+03 
552.487  1.94000000e+03 
552.451  1.91600000e+03 
552.415  2.00200000e+03 
552.379  1.94400000e+03 
552.343  1.94400000e+03 
552.307  1.97700000e+03 
552.271  1.91400000e+03 
552.235  1.94500000e+03 
552.198  2.00100000e+03 
552.162  1.91000000e+03 
552.126  1.91700000e+03 
552.090  1.83700000e+03 
552.054  1.95400000e+03 
552.018  1.91300000e+03 
551.982  1.91500000e+03 
551.946  1.84400000e+03 
551.910  1.89900000e+03 
551.874  1.89100000e+03 
551.838  1.78400000e+03 
551.802  1.89900000e+03 
551.765  1.75600000e+03 
551.729  1.74900000e+03 
551.693  1.87100000e+03 
551.657  1.89000000e+03 
551.621  1.88000000e+03 
551.585  1.83400000e+03 
551.549  1.82700000e+03 
551.513  1.87000000e+03 
551.477  1.80100000e+03 
551.441  1.89800000e+03 
551.405  1.76000000e+03 
551.369  1.81700000e+03 
551.333  1.80200000e+03 
551.296  1.85100000e+03 
551.260  1.72200000e+03 
551.224  1.70700000e+03 
551.188  1.74900000e+03 
551.152  1.82000000e+03 
551.116  1.73500000e+03 
551.080  1.82100000e+03 
551.044  1.78900000e+03 
551.008  1.73200000e+03 
550.972  1.73100000e+03 
550.936  1.71900000e+03 
550.900  1.75600000e+03 
550.864  1.69100000e+03 
550.827  1.75600000e+03 
550.791  1.69500000e+03 
550.755  1.68900000e+03 
550.719  1.67400000e+03 
550.683  1.64900000e+03 
550.647  1.71400000e+03 
550.611  1.62600000e+03 
550.575  1.68800000e+03 
550.539  1.59900000e+03 
550.503  1.65900000e+03 
550.467  1.69000000e+03 
550.431  1.64100000e+03 
550.395  1.63800000e+03 
550.358  1.71600000e+03 
550.322  1.65000000e+03 
550.286  1.63300000e+03 
550.250  1.59600000e+03 
550.214  1.61400000e+03 
550.178  1.77000000e+03 
550.142  1.62400000e+03 
550.106  1.69500000e+03 
550.070  1.67300000e+03 
550.034  1.65600000e+03 
549.998  1.66400000e+03 
549.962  1.64000000e+03 
549.925  1.60300000e+03 
549.889  1.65700000e+03 
549.853  1.74500000e+03 
549.817  1.64700000e+03 
549.781  1.60300000e+03 
549.745  1.59700000e+03 
549.709  1.59500000e+03 
549.673  1.55700000e+03 
549.637  1.52900000e+03 
549.601  1.51500000e+03 
549.565  1.53000000e+03 
549.529  1.52100000e+03 
549.493  1.49500000e+03 
549.456  1.53000000e+03 
549.420  1.54800000e+03 
549.384  1.47200000e+03 
549.348  1.46300000e+03 
549.312  1.42600000e+03 
549.276  1.51700000e+03 
549.240  1.47200000e+03 
549.204  1.48500000e+03 
549.168  1.51400000e+03 
549.132  1.46100000e+03 
549.096  1.49400000e+03 
549.060  1.48400000e+03 
549.024  1.40600000e+03 
548.987  1.43100000e+03 
548.951  1.41400000e+03 
548.915  1.38400000e+03 
548.879  1.47200000e+03 
548.843  1.36000000e+03 
548.807  1.41100000e+03 
548.771  1.42100000e+03 
548.735  1.45300000e+03 
548.699  1.33700000e+03 
548.663  1.37400000e+03 
548.627  1.36300000e+03 
548.591  1.31700000e+03 
548.555  1.34600000e+03 
548.518  1.32500000e+03 
548.482  1.32000000e+03 
548.446  1.21900000e+03 
548.410  1.27100000e+03 
548.374  1.33500000e+03 
548.338  1.34200000e+03 
548.302  1.31600000e+03 
548.266  1.27400000e+03 
548.230  1.28000000e+03 
548.194  1.25600000e+03 
548.158  1.27800000e+03 
548.122  1.24800000e+03 
548.085  1.24700000e+03 
548.049  1.25700000e+03 
548.013  1.28400000e+03 
547.977  1.28300000e+03 
547.941  1.24000000e+03 
547.905  1.25200000e+03 
547.869  1.17400000e+03 
547.833  1.15500000e+03 
547.797  1.26900000e+03 
547.761  9.98000000e+02 
547.725  9.91000000e+02 
547.689  1.11200000e+03 
547.653  8.38000000e+02 
547.616  9.32000000e+02 
547.580  9.90000000e+02 
547.544  6.92000000e+02 
547.508  5.96000000e+02 
547.472  3.15000000e+02 
547.436  0.00000000e+00 
547.400  0.00000000e+00 

[ L= 1 R= 10 ]
BEcenter= 552.000 
BEwidth= -9.200  
Excitation= 1486.600
Time_p_channel= 1000.000
Size= 256
556.600  1.61100000e+03 
556.564  1.66300000e+03 
556.528  1.66700000e+03 
556.492  1.69700000e+03 
556.456  1.72600000e+03 
556.420  1.76200000e+03 
556.384  1.80000000e+03 
556.347  1.71900000e+03 
556.311  1.70700000e+03 
556.275  1.85600000e+03 
556.239  1.80300000e+03 
556.203  1.82300000e+03 
556.167  1.68800000e+03 
556.131  1.74600000e+03 
556.095  1.76900000e+03 
556.059  1.77400000e+03 
556.023  1.78300000e+03 
555.987  1.76400000e+03 
555.951  1.82900000e+03 
555.915  1.71900000e+03 
555.878  1.75800000e+03 
555.842  1.79600000e+03 
555.806  1.74300000e+03 
555.770  1.76900000e+03 
555.734  1.89400000e+03 
555.698  1.73400000e+03 
555.662  1.81500000e+03 
555.626  1.83500000e+03 
555.590  1.81800000e+03 
555.554  1.83900000e+03 
555.518  1.80500000e+03 
555.482  1.80800000e+03 
555.445  1.80700000e+03 
555.409  1.81400000e+03 
555.373  1.93900000e+03 
555.337  1.86500000e+03 
555.301  1.87300000e+03 
555.265  1.90200000e+03 
555.229  1.80900000e+03 
555.193  1.88500000e+03 
555.157  1.95100000e+03 
555.121  1.89100000e+03 
555.085  1.90700000e+03 
555.049  1.92100000e+03 
555.013  1.99800000e+03 
554.976  1.91300000e+03 
554.940  1.91700000e+03 
554.904  1.98400000e+03 
554.868  1.97300000e+03 
554.832  1.98100000e+03 
554.796  2.02500000e+03 
554.760  1.95900000e+03 
554.724  2.01600000e+03 
554.688  1.98800000e+03 
554.652  2.01600000e+03 
554.616  1.95000000e+03 
554.580  2.06800000e+03 
554.544  1.94600000e+03 
554.507  2.02300000e+03 
554.471  1.94300000e+03 
554.435  2.00200000e+03 
554.399  2.03900000e+03 
554.363  1.99100000e+03 
554.327  1.91600000e+03 
554.291  1.96800000e+03 
554.255  1.95200000e+03 
554.219  2.02800000e+03 
554.183  2.03000000e+03 
554.147  2.03900000e+03 
554.111  1.99100000e+03 
554.075  2.00900000e+03 
554.038  2.04100000e+03 
554.002  1.99100000e+03 
553.966  2.04400000e+03 
553.930  2.06300000e+03 
553.894  2.10700000e+03 
553.858  2.11700000e+03 
553.822  2.07300000e+03 
553.786  2.08000000e+03 
553.750  2.09100000e+03 
553.714  2.01800000e+03 
553.678  2.11600000e+03 
553.642  2.08100000e+03 
553.605  2.09500000e+03 
553.569  2.21000000e+03 
553.533  2.12300000e+03 
553.497  2.09800000e+03 
553.461  2.14500000e+03 
553.425  2.16800000e+03 
553.389  2.10100000e+03 
553.353  2.10100000e+03 
553.317  2.05700000e+03 
553.281  2.03400000e+03 
553.245  2.17100000e+03 
553.209  2.05500000e+03 
553.173  2.01900000e+03 
553.136  2.06400000e+03 
553.100  2.05600000e+03 
553.064  2.04000000e+03 
553.028  2.02100000e+03 
552.992  2.08900000e+03 
552.956  2.03700000e+03 
552.920  1.99900000e+03 
552.884  1.99600000e+03 
552.848  2.05800000e+03 
552.812  2.09600000e+03 
552.776  2.01000000e+03 
552.740  2.04600000e+03 
552.704  2.09100000e+03 
552.667  1.98500000e+03 
552.631  1.95900000e+03 
552.595  1.96700000e+03 
552.559  1.99900000e+03 
552.523  1.89800000e+03 
552.487  1.99200000e+03 
552.451  1.96700000e+03 
552.415  1.83900000e+03 
552.379  1.89000000e+03 
552.343  1.99100000e+03 
552.307  1.93400000e+03 
552.271  1.92000000e+03 
552.235  1.93300000e+03 
552.198  1.90000000e+03 
552.162  1.99900000e+03 
552.126  1.86900000e+03 
552.090  1.88000000e+03 
552.054  1.89300000e+03 
552.018  1.87300000e+03 
551.982  1.83400000e+03 
551.946  1.88000000e+03 
551.910  1.90800000e+03 
551.874  1.78700000e+03 
551.838  1.86400000e+03 
551.802  1.83400000e+03 
551.765  1.81700000e+03 
551.729  1.85800000e+03 
551.693  1.87900000e+03 
551.657  1.84300000e+03 
551.621  1.82600000e+03 
551.585  1.83100000e+03 
551.549  1.83100000e+03 
551.513  1.81600000e+03 
551.477  1.80700000e+03 
551.441  1.82700000e+03 
551.405  1.76800000e+03 
551.369  1.76900000e+03 
551.333  1.81200000e+03 
551.296  1.75200000e+03 
551.260  1.78700000e+03 
551.224  1.82600000e+03 
551.188  1.79000000e+03 
551.152  1.70100000e+03 
551.116  1.71200000e+03 
551.080  1.76100000e+03 
551.044  1.74500000e+03 
551.008  1.66100000e+03 
550.972  1.68500000e+03 
550.936  1.68600000e+03 
550.900  1.73800000e+03 
550.864  1.70500000e+03 
550.827  1.76500000e+03 
550.791  1.68500000e+03 
550.755  1.72900000e+03 
550.719  1.65100000e+03 
550.683  1.67600000e+03 
550.647  1.69600000e+03 
550.611  1.65700000e+03 
550.575  1.65800000e+03 
550.539  1.64600000e+03 
550.503  1.68400000e+03 
550.467  1.66700000e+03 
550.431  1.65800000e+03 
550.395  1.68000000e+03 
550.358  1.74900000e+03 
550.322  1.61500000e+03 
550.286  1.58600000e+03 
550.250  1.68100000e+03 
550.214  1.65900000e+03 
550.178  1.59600000e+03 
550.142  1.66400000e+03 
550.106  1.65800000e+03 
550.070  1.65800000e+03 
550.034  1.62500000e+03 
549.998  1.64800000e+03 
549.962  1.62900000e+03 
549.925  1.65100000e+03 
549.889  1.66500000e+03 
549.853  1.69400000e+03 
549.817  1.57400000e+03 
549.781  1.54800000e+03 
549.745  1.59700000e+03 
549.709  1.56100000e+03 
549.673  1.59000000e+03 
549.637  1.55000000e+03 
549.601  1.58500000e+03 
549.565  1.64800000e+03 
549.529  1.58300000e+03 
549.493  1.51800000e+03 
549.456  1.50700000e+03 
549.420  1.48900000e+03 
549.384  1.55600000e+03 
549.348  1.45500000e+03 
549.312  1.50100000e+03 
549.276  1.46600000e+03 
549.240  1.44600000e+03 
549.204  1.48300000e+03 
549.168  1.47500000e+03 
549.132  1.50100000e+03 
549.096  1.48100000e+03 
549.060  1.47600000e+03 
549.024  1.37700000e+03 
548.987  1.45900000e+03 
548.951  1.39900000e+03 
548.915  1.46000000e+03 
548.879  1.36000000e+03 
548.843  1.43900000e+03 
548.807  1.36500000e+03 
548.771  1.45100000e+03 
548.735  1.32700000e+03 
548.699  1.38900000e+03 
548.663  1.34900000e+03 
548.627  1.37800000e+03 
548.591  1.36500000e+03 
548.555  1.29000000e+03 
548.518  1.35900000e+03 
548.482  1.29000000e+03 
548.446  1.37500000e+03 
548.410  1.30400000e+03 
548.374  1.30700000e+03 
548.338  1.27400000e+03 
548.302  1.30100000e+03 
548.266  1.29800000e+03 
548.230  1.37000000e+03 
548.194  1.30500000e+03 
548.158  1.30200000e+03 
548.122  1.31200000e+03 
548.085  1.24200000e+03 
548.049  1.28200000e+03 
548.013  1.24700000e+03 
547.977  1.23600000e+03 
547.941  1.25400000e+03 
547.905  1.27500000e+03 
547.869  1.22600000e+03 
547.833  1.10100000e+03 
547.797  1.22900000e+03 
547.761  9.68000000e+02 
547.725  9.04000000e+02 
547.689  1.06500000e+03 
547.653  8.06000000e+02 
547.616  9.77000000e+02 
547.580  9.38000000e+02 
547.544  7.37000000e+02 
547.508  6.59000000e+02 
547.472  3.19000000e+02 
547.436  0.00000000e+00 
547.400  0.00000000e+00 

