EXPERIMENT FILE
Version = 2

[ Experiment Parameters ]
Experiment Description= <none> 
Number_of_Regions_in_Experiment= 1 

Original_File_name= C:\alexesca\data\Surveys\96_27_13 Si 2.xps 
Instrument= HP ESCA West
Date= 06-27-2013
Time=  14:01:32

[ Layer Parameters ]
Layer_Type= XPS

[ Region 1 Parameters ]
Region_Description = 50-200eV (3x) 1 sec dwell time
BEcenter(eV) = 125.000000
BEwidth(eV) = 75.000000
BEstep(eV) = 0.035937
Dwell_Time(sec) = 1.000000
N_o_scans = 3  
N_o_Channels = 2087  
Scan_mode = 0  (DITHERED)

[ L= 1 R= 1 ]
BEcenter= 125.000 
BEwidth= -74.966 
Excitation= 1486.600
Time_p_channel= 768.000 
Size= 2087
162.483  4.86000000e+02 
162.447  5.23000000e+02 
162.411  4.97000000e+02 
162.375  4.67000000e+02 
162.339  4.85000000e+02 
162.303  5.01000000e+02 
162.267  4.87000000e+02 
162.231  5.15000000e+02 
162.195  5.12000000e+02 
162.159  4.92000000e+02 
162.123  4.84000000e+02 
162.088  4.77000000e+02 
162.052  4.82000000e+02 
162.016  4.76000000e+02 
161.980  5.31000000e+02 
161.944  5.06000000e+02 
161.908  4.54000000e+02 
161.872  5.14000000e+02 
161.836  4.95000000e+02 
161.800  5.41000000e+02 
161.764  5.02000000e+02 
161.728  5.23000000e+02 
161.692  5.01000000e+02 
161.656  5.36000000e+02 
161.620  4.68000000e+02 
161.584  4.76000000e+02 
161.548  5.07000000e+02 
161.512  4.79000000e+02 
161.477  5.10000000e+02 
161.441  5.09000000e+02 
161.405  5.00000000e+02 
161.369  4.77000000e+02 
161.333  5.14000000e+02 
161.297  5.15000000e+02 
161.261  5.27000000e+02 
161.225  4.76000000e+02 
161.189  4.72000000e+02 
161.153  5.06000000e+02 
161.117  5.06000000e+02 
161.081  4.86000000e+02 
161.045  4.95000000e+02 
161.009  4.91000000e+02 
160.973  5.30000000e+02 
160.938  5.19000000e+02 
160.902  5.08000000e+02 
160.866  5.05000000e+02 
160.830  4.89000000e+02 
160.794  4.73000000e+02 
160.758  4.65000000e+02 
160.722  5.03000000e+02 
160.686  4.80000000e+02 
160.650  5.00000000e+02 
160.614  5.08000000e+02 
160.578  5.10000000e+02 
160.542  5.08000000e+02 
160.506  4.94000000e+02 
160.470  5.12000000e+02 
160.434  4.61000000e+02 
160.398  5.03000000e+02 
160.363  4.88000000e+02 
160.327  4.59000000e+02 
160.291  5.09000000e+02 
160.255  4.90000000e+02 
160.219  4.88000000e+02 
160.183  5.11000000e+02 
160.147  5.17000000e+02 
160.111  4.84000000e+02 
160.075  4.71000000e+02 
160.039  4.69000000e+02 
160.003  5.03000000e+02 
159.967  4.91000000e+02 
159.931  5.16000000e+02 
159.895  4.73000000e+02 
159.859  4.50000000e+02 
159.823  5.05000000e+02 
159.787  4.80000000e+02 
159.752  4.55000000e+02 
159.716  5.27000000e+02 
159.680  4.97000000e+02 
159.644  4.73000000e+02 
159.608  4.76000000e+02 
159.572  5.12000000e+02 
159.536  4.47000000e+02 
159.500  4.73000000e+02 
159.464  5.24000000e+02 
159.428  4.90000000e+02 
159.392  5.14000000e+02 
159.356  4.76000000e+02 
159.320  4.74000000e+02 
159.284  4.89000000e+02 
159.248  4.53000000e+02 
159.213  4.35000000e+02 
159.177  4.55000000e+02 
159.141  4.84000000e+02 
159.105  4.33000000e+02 
159.069  5.32000000e+02 
159.033  4.58000000e+02 
158.997  4.52000000e+02 
158.961  4.64000000e+02 
158.925  4.61000000e+02 
158.889  4.81000000e+02 
158.853  4.95000000e+02 
158.817  4.83000000e+02 
158.781  4.56000000e+02 
158.745  5.20000000e+02 
158.709  5.13000000e+02 
158.673  5.05000000e+02 
158.637  4.70000000e+02 
158.602  4.67000000e+02 
158.566  4.99000000e+02 
158.530  4.53000000e+02 
158.494  4.65000000e+02 
158.458  4.83000000e+02 
158.422  5.44000000e+02 
158.386  4.63000000e+02 
158.350  4.67000000e+02 
158.314  4.86000000e+02 
158.278  4.39000000e+02 
158.242  5.05000000e+02 
158.206  5.10000000e+02 
158.170  4.81000000e+02 
158.134  4.58000000e+02 
158.098  4.60000000e+02 
158.062  4.92000000e+02 
158.027  4.76000000e+02 
157.991  4.46000000e+02 
157.955  4.62000000e+02 
157.919  4.23000000e+02 
157.883  5.00000000e+02 
157.847  4.81000000e+02 
157.811  5.00000000e+02 
157.775  5.03000000e+02 
157.739  4.83000000e+02 
157.703  4.96000000e+02 
157.667  4.83000000e+02 
157.631  4.59000000e+02 
157.595  4.78000000e+02 
157.559  4.79000000e+02 
157.523  5.13000000e+02 
157.488  4.57000000e+02 
157.452  5.00000000e+02 
157.416  4.64000000e+02 
157.380  4.81000000e+02 
157.344  4.71000000e+02 
157.308  4.90000000e+02 
157.272  4.65000000e+02 
157.236  4.84000000e+02 
157.200  4.91000000e+02 
157.164  5.00000000e+02 
157.128  4.62000000e+02 
157.092  5.14000000e+02 
157.056  5.24000000e+02 
157.020  4.90000000e+02 
156.984  4.96000000e+02 
156.948  4.84000000e+02 
156.912  5.06000000e+02 
156.877  4.48000000e+02 
156.841  4.96000000e+02 
156.805  4.98000000e+02 
156.769  5.20000000e+02 
156.733  4.88000000e+02 
156.697  4.69000000e+02 
156.661  4.63000000e+02 
156.625  4.42000000e+02 
156.589  4.62000000e+02 
156.553  5.01000000e+02 
156.517  5.40000000e+02 
156.481  4.85000000e+02 
156.445  4.74000000e+02 
156.409  4.84000000e+02 
156.373  4.77000000e+02 
156.338  4.58000000e+02 
156.302  5.11000000e+02 
156.266  4.84000000e+02 
156.230  4.94000000e+02 
156.194  5.17000000e+02 
156.158  4.87000000e+02 
156.122  4.79000000e+02 
156.086  4.99000000e+02 
156.050  5.04000000e+02 
156.014  4.88000000e+02 
155.978  4.78000000e+02 
155.942  4.96000000e+02 
155.906  4.49000000e+02 
155.870  4.33000000e+02 
155.834  5.34000000e+02 
155.798  4.73000000e+02 
155.762  5.22000000e+02 
155.727  4.80000000e+02 
155.691  5.01000000e+02 
155.655  4.94000000e+02 
155.619  4.53000000e+02 
155.583  4.77000000e+02 
155.547  5.10000000e+02 
155.511  4.28000000e+02 
155.475  5.15000000e+02 
155.439  4.91000000e+02 
155.403  4.77000000e+02 
155.367  5.32000000e+02 
155.331  5.00000000e+02 
155.295  4.88000000e+02 
155.259  4.73000000e+02 
155.223  4.73000000e+02 
155.188  5.50000000e+02 
155.152  4.74000000e+02 
155.116  4.79000000e+02 
155.080  5.08000000e+02 
155.044  4.89000000e+02 
155.008  4.72000000e+02 
154.972  4.52000000e+02 
154.936  5.05000000e+02 
154.900  4.58000000e+02 
154.864  5.04000000e+02 
154.828  4.86000000e+02 
154.792  4.59000000e+02 
154.756  4.79000000e+02 
154.720  5.04000000e+02 
154.684  4.59000000e+02 
154.648  4.71000000e+02 
154.613  4.67000000e+02 
154.577  4.84000000e+02 
154.541  4.94000000e+02 
154.505  4.51000000e+02 
154.469  4.60000000e+02 
154.433  4.80000000e+02 
154.397  4.78000000e+02 
154.361  4.78000000e+02 
154.325  4.66000000e+02 
154.289  4.94000000e+02 
154.253  4.76000000e+02 
154.217  4.72000000e+02 
154.181  5.33000000e+02 
154.145  5.04000000e+02 
154.109  4.57000000e+02 
154.073  5.03000000e+02 
154.037  4.42000000e+02 
154.002  5.03000000e+02 
153.966  4.80000000e+02 
153.930  5.23000000e+02 
153.894  4.63000000e+02 
153.858  4.91000000e+02 
153.822  5.11000000e+02 
153.786  4.97000000e+02 
153.750  4.88000000e+02 
153.714  5.17000000e+02 
153.678  4.79000000e+02 
153.642  4.52000000e+02 
153.606  4.51000000e+02 
153.570  4.65000000e+02 
153.534  5.03000000e+02 
153.498  4.90000000e+02 
153.463  4.67000000e+02 
153.427  4.71000000e+02 
153.391  4.63000000e+02 
153.355  4.73000000e+02 
153.319  4.84000000e+02 
153.283  5.17000000e+02 
153.247  4.23000000e+02 
153.211  4.15000000e+02 
153.175  4.66000000e+02 
153.139  5.00000000e+02 
153.103  4.52000000e+02 
153.067  4.99000000e+02 
153.031  4.77000000e+02 
152.995  5.11000000e+02 
152.959  4.62000000e+02 
152.923  5.24000000e+02 
152.887  4.90000000e+02 
152.852  4.69000000e+02 
152.816  4.99000000e+02 
152.780  4.55000000e+02 
152.744  4.50000000e+02 
152.708  4.85000000e+02 
152.672  4.85000000e+02 
152.636  5.09000000e+02 
152.600  5.28000000e+02 
152.564  5.09000000e+02 
152.528  4.92000000e+02 
152.492  5.24000000e+02 
152.456  4.83000000e+02 
152.420  4.90000000e+02 
152.384  4.61000000e+02 
152.348  4.56000000e+02 
152.312  4.84000000e+02 
152.277  4.60000000e+02 
152.241  4.85000000e+02 
152.205  4.51000000e+02 
152.169  4.93000000e+02 
152.133  4.91000000e+02 
152.097  4.78000000e+02 
152.061  4.49000000e+02 
152.025  4.66000000e+02 
151.989  5.33000000e+02 
151.953  4.69000000e+02 
151.917  4.53000000e+02 
151.881  4.45000000e+02 
151.845  4.75000000e+02 
151.809  4.85000000e+02 
151.773  4.51000000e+02 
151.738  5.10000000e+02 
151.702  4.79000000e+02 
151.666  4.96000000e+02 
151.630  4.75000000e+02 
151.594  5.16000000e+02 
151.558  4.47000000e+02 
151.522  4.84000000e+02 
151.486  4.46000000e+02 
151.450  5.02000000e+02 
151.414  4.57000000e+02 
151.378  4.31000000e+02 
151.342  5.03000000e+02 
151.306  4.62000000e+02 
151.270  4.60000000e+02 
151.234  4.57000000e+02 
151.198  4.97000000e+02 
151.162  4.93000000e+02 
151.127  4.61000000e+02 
151.091  4.89000000e+02 
151.055  4.73000000e+02 
151.019  4.99000000e+02 
150.983  4.96000000e+02 
150.947  4.78000000e+02 
150.911  4.97000000e+02 
150.875  4.67000000e+02 
150.839  4.94000000e+02 
150.803  4.67000000e+02 
150.767  4.32000000e+02 
150.731  5.17000000e+02 
150.695  5.27000000e+02 
150.659  4.59000000e+02 
150.623  4.85000000e+02 
150.588  4.81000000e+02 
150.552  4.77000000e+02 
150.516  5.13000000e+02 
150.480  4.79000000e+02 
150.444  4.94000000e+02 
150.408  4.97000000e+02 
150.372  4.63000000e+02 
150.336  4.62000000e+02 
150.300  4.69000000e+02 
150.264  4.19000000e+02 
150.228  4.87000000e+02 
150.192  4.95000000e+02 
150.156  4.65000000e+02 
150.120  4.88000000e+02 
150.084  4.58000000e+02 
150.048  4.31000000e+02 
150.012  4.98000000e+02 
149.977  5.07000000e+02 
149.941  4.49000000e+02 
149.905  5.16000000e+02 
149.869  4.49000000e+02 
149.833  4.36000000e+02 
149.797  4.37000000e+02 
149.761  5.10000000e+02 
149.725  4.61000000e+02 
149.689  5.04000000e+02 
149.653  4.40000000e+02 
149.617  4.79000000e+02 
149.581  4.62000000e+02 
149.545  4.88000000e+02 
149.509  4.87000000e+02 
149.473  4.81000000e+02 
149.438  4.42000000e+02 
149.402  5.15000000e+02 
149.366  4.53000000e+02 
149.330  4.54000000e+02 
149.294  4.74000000e+02 
149.258  5.03000000e+02 
149.222  4.55000000e+02 
149.186  4.64000000e+02 
149.150  5.15000000e+02 
149.114  4.68000000e+02 
149.078  5.06000000e+02 
149.042  4.41000000e+02 
149.006  4.65000000e+02 
148.970  4.98000000e+02 
148.934  4.80000000e+02 
148.898  4.51000000e+02 
148.863  4.58000000e+02 
148.827  4.59000000e+02 
148.791  4.95000000e+02 
148.755  5.03000000e+02 
148.719  5.10000000e+02 
148.683  4.62000000e+02 
148.647  4.78000000e+02 
148.611  4.92000000e+02 
148.575  4.91000000e+02 
148.539  4.55000000e+02 
148.503  4.61000000e+02 
148.467  4.75000000e+02 
148.431  4.66000000e+02 
148.395  4.38000000e+02 
148.359  5.11000000e+02 
148.323  4.72000000e+02 
148.287  5.09000000e+02 
148.252  4.74000000e+02 
148.216  4.96000000e+02 
148.180  4.62000000e+02 
148.144  4.73000000e+02 
148.108  4.68000000e+02 
148.072  4.92000000e+02 
148.036  4.58000000e+02 
148.000  4.58000000e+02 
147.964  4.79000000e+02 
147.928  4.81000000e+02 
147.892  4.87000000e+02 
147.856  4.49000000e+02 
147.820  5.39000000e+02 
147.784  4.25000000e+02 
147.748  4.99000000e+02 
147.713  4.67000000e+02 
147.677  4.52000000e+02 
147.641  4.87000000e+02 
147.605  4.87000000e+02 
147.569  4.59000000e+02 
147.533  4.52000000e+02 
147.497  4.80000000e+02 
147.461  4.95000000e+02 
147.425  5.11000000e+02 
147.389  4.69000000e+02 
147.353  4.81000000e+02 
147.317  4.21000000e+02 
147.281  5.09000000e+02 
147.245  4.69000000e+02 
147.209  4.92000000e+02 
147.173  4.79000000e+02 
147.137  4.70000000e+02 
147.102  4.84000000e+02 
147.066  4.97000000e+02 
147.030  5.06000000e+02 
146.994  4.77000000e+02 
146.958  5.15000000e+02 
146.922  4.69000000e+02 
146.886  4.62000000e+02 
146.850  4.88000000e+02 
146.814  4.64000000e+02 
146.778  4.73000000e+02 
146.742  4.55000000e+02 
146.706  4.73000000e+02 
146.670  4.84000000e+02 
146.634  4.52000000e+02 
146.598  5.37000000e+02 
146.562  4.81000000e+02 
146.527  5.02000000e+02 
146.491  5.40000000e+02 
146.455  4.63000000e+02 
146.419  4.82000000e+02 
146.383  5.19000000e+02 
146.347  5.10000000e+02 
146.311  4.83000000e+02 
146.275  4.96000000e+02 
146.239  4.94000000e+02 
146.203  4.86000000e+02 
146.167  4.60000000e+02 
146.131  4.56000000e+02 
146.095  4.67000000e+02 
146.059  4.69000000e+02 
146.023  5.19000000e+02 
145.988  4.83000000e+02 
145.952  5.35000000e+02 
145.916  5.09000000e+02 
145.880  4.79000000e+02 
145.844  4.57000000e+02 
145.808  4.97000000e+02 
145.772  4.79000000e+02 
145.736  4.91000000e+02 
145.700  4.92000000e+02 
145.664  4.48000000e+02 
145.628  4.85000000e+02 
145.592  4.89000000e+02 
145.556  4.44000000e+02 
145.520  4.72000000e+02 
145.484  4.46000000e+02 
145.448  5.11000000e+02 
145.412  5.10000000e+02 
145.377  5.04000000e+02 
145.341  5.13000000e+02 
145.305  4.84000000e+02 
145.269  4.93000000e+02 
145.233  5.02000000e+02 
145.197  5.33000000e+02 
145.161  4.95000000e+02 
145.125  4.81000000e+02 
145.089  4.89000000e+02 
145.053  4.63000000e+02 
145.017  4.92000000e+02 
144.981  4.72000000e+02 
144.945  4.89000000e+02 
144.909  4.57000000e+02 
144.873  4.79000000e+02 
144.838  4.78000000e+02 
144.802  5.03000000e+02 
144.766  4.73000000e+02 
144.730  4.95000000e+02 
144.694  4.64000000e+02 
144.658  4.65000000e+02 
144.622  4.76000000e+02 
144.586  4.86000000e+02 
144.550  4.71000000e+02 
144.514  5.12000000e+02 
144.478  5.17000000e+02 
144.442  4.61000000e+02 
144.406  4.96000000e+02 
144.370  4.77000000e+02 
144.334  4.74000000e+02 
144.298  4.82000000e+02 
144.262  5.04000000e+02 
144.227  5.05000000e+02 
144.191  5.40000000e+02 
144.155  4.97000000e+02 
144.119  4.97000000e+02 
144.083  4.74000000e+02 
144.047  5.21000000e+02 
144.011  5.12000000e+02 
143.975  4.52000000e+02 
143.939  4.51000000e+02 
143.903  4.91000000e+02 
143.867  4.66000000e+02 
143.831  4.99000000e+02 
143.795  4.72000000e+02 
143.759  5.11000000e+02 
143.723  4.86000000e+02 
143.688  4.90000000e+02 
143.652  4.97000000e+02 
143.616  5.34000000e+02 
143.580  4.81000000e+02 
143.544  4.88000000e+02 
143.508  5.48000000e+02 
143.472  4.92000000e+02 
143.436  4.60000000e+02 
143.400  4.80000000e+02 
143.364  4.85000000e+02 
143.328  4.47000000e+02 
143.292  5.07000000e+02 
143.256  4.84000000e+02 
143.220  5.13000000e+02 
143.184  5.02000000e+02 
143.148  5.20000000e+02 
143.113  4.85000000e+02 
143.077  5.18000000e+02 
143.041  4.81000000e+02 
143.005  4.88000000e+02 
142.969  4.84000000e+02 
142.933  4.84000000e+02 
142.897  4.94000000e+02 
142.861  5.10000000e+02 
142.825  5.17000000e+02 
142.789  4.73000000e+02 
142.753  4.96000000e+02 
142.717  5.19000000e+02 
142.681  4.69000000e+02 
142.645  4.93000000e+02 
142.609  5.16000000e+02 
142.573  4.61000000e+02 
142.537  5.09000000e+02 
142.502  4.99000000e+02 
142.466  4.81000000e+02 
142.430  5.17000000e+02 
142.394  4.90000000e+02 
142.358  4.95000000e+02 
142.322  4.60000000e+02 
142.286  4.89000000e+02 
142.250  4.78000000e+02 
142.214  5.56000000e+02 
142.178  4.93000000e+02 
142.142  4.90000000e+02 
142.106  4.85000000e+02 
142.070  5.27000000e+02 
142.034  4.79000000e+02 
141.998  5.05000000e+02 
141.963  4.48000000e+02 
141.927  4.72000000e+02 
141.891  4.93000000e+02 
141.855  5.40000000e+02 
141.819  4.95000000e+02 
141.783  5.00000000e+02 
141.747  4.98000000e+02 
141.711  4.81000000e+02 
141.675  4.63000000e+02 
141.639  5.01000000e+02 
141.603  5.31000000e+02 
141.567  5.21000000e+02 
141.531  4.76000000e+02 
141.495  5.03000000e+02 
141.459  5.06000000e+02 
141.423  4.73000000e+02 
141.387  4.76000000e+02 
141.352  4.87000000e+02 
141.316  4.81000000e+02 
141.280  4.92000000e+02 
141.244  5.12000000e+02 
141.208  5.10000000e+02 
141.172  4.87000000e+02 
141.136  5.38000000e+02 
141.100  5.09000000e+02 
141.064  5.05000000e+02 
141.028  4.81000000e+02 
140.992  4.66000000e+02 
140.956  4.68000000e+02 
140.920  4.69000000e+02 
140.884  4.89000000e+02 
140.848  4.92000000e+02 
140.812  5.05000000e+02 
140.777  4.59000000e+02 
140.741  4.99000000e+02 
140.705  4.77000000e+02 
140.669  4.83000000e+02 
140.633  5.00000000e+02 
140.597  4.72000000e+02 
140.561  5.16000000e+02 
140.525  4.73000000e+02 
140.489  4.84000000e+02 
140.453  4.96000000e+02 
140.417  5.42000000e+02 
140.381  4.72000000e+02 
140.345  5.23000000e+02 
140.309  4.57000000e+02 
140.273  5.01000000e+02 
140.238  4.83000000e+02 
140.202  5.01000000e+02 
140.166  5.35000000e+02 
140.130  5.08000000e+02 
140.094  4.47000000e+02 
140.058  4.96000000e+02 
140.022  5.01000000e+02 
139.986  5.20000000e+02 
139.950  4.89000000e+02 
139.914  4.89000000e+02 
139.878  5.07000000e+02 
139.842  4.74000000e+02 
139.806  5.31000000e+02 
139.770  5.15000000e+02 
139.734  4.91000000e+02 
139.698  5.44000000e+02 
139.662  4.83000000e+02 
139.627  4.84000000e+02 
139.591  5.08000000e+02 
139.555  5.31000000e+02 
139.519  5.00000000e+02 
139.483  4.98000000e+02 
139.447  5.13000000e+02 
139.411  5.17000000e+02 
139.375  4.81000000e+02 
139.339  4.77000000e+02 
139.303  5.29000000e+02 
139.267  5.03000000e+02 
139.231  4.94000000e+02 
139.195  5.12000000e+02 
139.159  5.22000000e+02 
139.123  5.08000000e+02 
139.088  4.81000000e+02 
139.052  5.01000000e+02 
139.016  5.20000000e+02 
138.980  4.77000000e+02 
138.944  5.09000000e+02 
138.908  4.69000000e+02 
138.872  4.95000000e+02 
138.836  4.99000000e+02 
138.800  5.05000000e+02 
138.764  5.28000000e+02 
138.728  4.88000000e+02 
138.692  5.11000000e+02 
138.656  5.33000000e+02 
138.620  4.94000000e+02 
138.584  5.07000000e+02 
138.548  5.03000000e+02 
138.512  5.06000000e+02 
138.477  4.91000000e+02 
138.441  5.28000000e+02 
138.405  5.01000000e+02 
138.369  4.93000000e+02 
138.333  5.14000000e+02 
138.297  5.11000000e+02 
138.261  5.04000000e+02 
138.225  5.01000000e+02 
138.189  5.10000000e+02 
138.153  4.84000000e+02 
138.117  4.78000000e+02 
138.081  5.15000000e+02 
138.045  5.29000000e+02 
138.009  4.79000000e+02 
137.973  4.91000000e+02 
137.938  5.35000000e+02 
137.902  5.45000000e+02 
137.866  4.76000000e+02 
137.830  5.03000000e+02 
137.794  5.25000000e+02 
137.758  5.40000000e+02 
137.722  4.87000000e+02 
137.686  5.31000000e+02 
137.650  5.04000000e+02 
137.614  5.30000000e+02 
137.578  4.84000000e+02 
137.542  4.98000000e+02 
137.506  4.75000000e+02 
137.470  4.78000000e+02 
137.434  4.95000000e+02 
137.398  5.17000000e+02 
137.363  4.91000000e+02 
137.327  5.38000000e+02 
137.291  5.13000000e+02 
137.255  5.15000000e+02 
137.219  5.32000000e+02 
137.183  5.03000000e+02 
137.147  5.16000000e+02 
137.111  5.02000000e+02 
137.075  5.18000000e+02 
137.039  5.41000000e+02 
137.003  5.40000000e+02 
136.967  5.30000000e+02 
136.931  4.87000000e+02 
136.895  5.00000000e+02 
136.859  4.81000000e+02 
136.823  5.23000000e+02 
136.787  4.92000000e+02 
136.752  5.29000000e+02 
136.716  5.51000000e+02 
136.680  5.17000000e+02 
136.644  5.18000000e+02 
136.608  5.33000000e+02 
136.572  5.23000000e+02 
136.536  5.47000000e+02 
136.500  5.41000000e+02 
136.464  5.11000000e+02 
136.428  5.25000000e+02 
136.392  5.29000000e+02 
136.356  5.58000000e+02 
136.320  5.39000000e+02 
136.284  5.14000000e+02 
136.248  5.28000000e+02 
136.213  5.24000000e+02 
136.177  5.38000000e+02 
136.141  5.38000000e+02 
136.105  5.59000000e+02 
136.069  5.05000000e+02 
136.033  5.44000000e+02 
135.997  5.09000000e+02 
135.961  5.26000000e+02 
135.925  5.61000000e+02 
135.889  4.77000000e+02 
135.853  4.97000000e+02 
135.817  4.80000000e+02 
135.781  5.18000000e+02 
135.745  5.47000000e+02 
135.709  4.94000000e+02 
135.673  5.54000000e+02 
135.637  5.31000000e+02 
135.602  5.58000000e+02 
135.566  5.62000000e+02 
135.530  5.39000000e+02 
135.494  5.37000000e+02 
135.458  5.99000000e+02 
135.422  5.45000000e+02 
135.386  5.48000000e+02 
135.350  4.98000000e+02 
135.314  5.54000000e+02 
135.278  5.68000000e+02 
135.242  5.22000000e+02 
135.206  5.41000000e+02 
135.170  5.26000000e+02 
135.134  5.10000000e+02 
135.098  5.73000000e+02 
135.062  5.63000000e+02 
135.027  5.02000000e+02 
134.991  5.42000000e+02 
134.955  5.59000000e+02 
134.919  5.69000000e+02 
134.883  5.20000000e+02 
134.847  5.39000000e+02 
134.811  5.14000000e+02 
134.775  5.10000000e+02 
134.739  5.32000000e+02 
134.703  5.03000000e+02 
134.667  4.90000000e+02 
134.631  5.30000000e+02 
134.595  5.24000000e+02 
134.559  5.09000000e+02 
134.523  5.40000000e+02 
134.488  5.67000000e+02 
134.452  5.20000000e+02 
134.416  5.33000000e+02 
134.380  5.84000000e+02 
134.344  5.11000000e+02 
134.308  5.63000000e+02 
134.272  5.52000000e+02 
134.236  5.44000000e+02 
134.200  5.15000000e+02 
134.164  4.97000000e+02 
134.128  5.38000000e+02 
134.092  5.40000000e+02 
134.056  5.26000000e+02 
134.020  5.20000000e+02 
133.984  5.28000000e+02 
133.948  5.12000000e+02 
133.912  5.25000000e+02 
133.877  5.21000000e+02 
133.841  4.78000000e+02 
133.805  4.99000000e+02 
133.769  5.36000000e+02 
133.733  5.03000000e+02 
133.697  4.97000000e+02 
133.661  5.49000000e+02 
133.625  5.35000000e+02 
133.589  5.17000000e+02 
133.553  5.14000000e+02 
133.517  5.61000000e+02 
133.481  4.76000000e+02 
133.445  5.30000000e+02 
133.409  5.40000000e+02 
133.373  4.80000000e+02 
133.338  5.35000000e+02 
133.302  5.09000000e+02 
133.266  5.22000000e+02 
133.230  5.21000000e+02 
133.194  5.36000000e+02 
133.158  5.07000000e+02 
133.122  5.34000000e+02 
133.086  5.72000000e+02 
133.050  4.91000000e+02 
133.014  5.34000000e+02 
132.978  5.05000000e+02 
132.942  5.44000000e+02 
132.906  4.72000000e+02 
132.870  5.09000000e+02 
132.834  5.44000000e+02 
132.798  5.45000000e+02 
132.762  5.02000000e+02 
132.727  4.99000000e+02 
132.691  4.97000000e+02 
132.655  5.06000000e+02 
132.619  5.91000000e+02 
132.583  5.05000000e+02 
132.547  5.18000000e+02 
132.511  4.89000000e+02 
132.475  5.48000000e+02 
132.439  5.01000000e+02 
132.403  4.71000000e+02 
132.367  5.59000000e+02 
132.331  4.95000000e+02 
132.295  4.95000000e+02 
132.259  5.43000000e+02 
132.223  5.26000000e+02 
132.188  5.04000000e+02 
132.152  4.86000000e+02 
132.116  5.11000000e+02 
132.080  5.19000000e+02 
132.044  5.24000000e+02 
132.008  5.45000000e+02 
131.972  5.36000000e+02 
131.936  5.00000000e+02 
131.900  5.13000000e+02 
131.864  4.88000000e+02 
131.828  4.74000000e+02 
131.792  5.77000000e+02 
131.756  4.81000000e+02 
131.720  5.31000000e+02 
131.684  4.67000000e+02 
131.648  5.05000000e+02 
131.613  5.06000000e+02 
131.577  5.23000000e+02 
131.541  5.68000000e+02 
131.505  4.72000000e+02 
131.469  5.22000000e+02 
131.433  5.20000000e+02 
131.397  4.61000000e+02 
131.361  4.94000000e+02 
131.325  4.65000000e+02 
131.289  5.12000000e+02 
131.253  4.87000000e+02 
131.217  5.04000000e+02 
131.181  5.06000000e+02 
131.145  4.73000000e+02 
131.109  4.87000000e+02 
131.073  5.30000000e+02 
131.037  5.20000000e+02 
131.002  5.00000000e+02 
130.966  4.99000000e+02 
130.930  4.92000000e+02 
130.894  4.95000000e+02 
130.858  4.50000000e+02 
130.822  4.60000000e+02 
130.786  4.96000000e+02 
130.750  4.63000000e+02 
130.714  4.71000000e+02 
130.678  4.99000000e+02 
130.642  5.16000000e+02 
130.606  4.81000000e+02 
130.570  5.00000000e+02 
130.534  4.80000000e+02 
130.498  5.25000000e+02 
130.463  4.66000000e+02 
130.427  4.94000000e+02 
130.391  4.99000000e+02 
130.355  4.85000000e+02 
130.319  4.77000000e+02 
130.283  5.24000000e+02 
130.247  5.01000000e+02 
130.211  4.81000000e+02 
130.175  4.89000000e+02 
130.139  4.66000000e+02 
130.103  5.24000000e+02 
130.067  4.79000000e+02 
130.031  4.90000000e+02 
129.995  4.85000000e+02 
129.959  4.92000000e+02 
129.923  4.64000000e+02 
129.887  4.97000000e+02 
129.852  4.83000000e+02 
129.816  4.83000000e+02 
129.780  4.85000000e+02 
129.744  4.58000000e+02 
129.708  5.00000000e+02 
129.672  5.09000000e+02 
129.636  4.68000000e+02 
129.600  4.52000000e+02 
129.564  4.83000000e+02 
129.528  4.89000000e+02 
129.492  4.90000000e+02 
129.456  5.07000000e+02 
129.420  4.79000000e+02 
129.384  4.89000000e+02 
129.348  4.89000000e+02 
129.312  4.88000000e+02 
129.277  4.39000000e+02 
129.241  5.08000000e+02 
129.205  5.08000000e+02 
129.169  4.44000000e+02 
129.133  4.62000000e+02 
129.097  4.69000000e+02 
129.061  5.14000000e+02 
129.025  5.12000000e+02 
128.989  4.82000000e+02 
128.953  4.84000000e+02 
128.917  4.88000000e+02 
128.881  4.83000000e+02 
128.845  4.78000000e+02 
128.809  4.59000000e+02 
128.773  4.85000000e+02 
128.738  4.82000000e+02 
128.702  5.02000000e+02 
128.666  4.98000000e+02 
128.630  5.04000000e+02 
128.594  4.82000000e+02 
128.558  4.66000000e+02 
128.522  4.67000000e+02 
128.486  4.62000000e+02 
128.450  4.73000000e+02 
128.414  4.88000000e+02 
128.378  4.88000000e+02 
128.342  5.07000000e+02 
128.306  4.71000000e+02 
128.270  5.17000000e+02 
128.234  5.01000000e+02 
128.198  4.71000000e+02 
128.162  5.23000000e+02 
128.127  4.47000000e+02 
128.091  4.65000000e+02 
128.055  4.59000000e+02 
128.019  4.54000000e+02 
127.983  5.17000000e+02 
127.947  4.99000000e+02 
127.911  4.80000000e+02 
127.875  4.43000000e+02 
127.839  4.93000000e+02 
127.803  4.87000000e+02 
127.767  4.85000000e+02 
127.731  4.62000000e+02 
127.695  4.72000000e+02 
127.659  4.88000000e+02 
127.623  4.34000000e+02 
127.588  4.94000000e+02 
127.552  4.66000000e+02 
127.516  4.66000000e+02 
127.480  4.82000000e+02 
127.444  4.40000000e+02 
127.408  4.87000000e+02 
127.372  4.80000000e+02 
127.336  4.56000000e+02 
127.300  4.73000000e+02 
127.264  4.89000000e+02 
127.228  4.72000000e+02 
127.192  5.02000000e+02 
127.156  4.78000000e+02 
127.120  4.52000000e+02 
127.084  4.90000000e+02 
127.048  4.61000000e+02 
127.013  4.70000000e+02 
126.977  4.82000000e+02 
126.941  4.77000000e+02 
126.905  4.92000000e+02 
126.869  4.55000000e+02 
126.833  4.62000000e+02 
126.797  4.47000000e+02 
126.761  4.46000000e+02 
126.725  4.37000000e+02 
126.689  4.65000000e+02 
126.653  4.93000000e+02 
126.617  4.42000000e+02 
126.581  4.92000000e+02 
126.545  4.29000000e+02 
126.509  4.87000000e+02 
126.473  4.62000000e+02 
126.438  4.48000000e+02 
126.402  5.08000000e+02 
126.366  4.82000000e+02 
126.330  4.62000000e+02 
126.294  4.62000000e+02 
126.258  4.64000000e+02 
126.222  4.72000000e+02 
126.186  4.84000000e+02 
126.150  4.32000000e+02 
126.114  4.80000000e+02 
126.078  4.68000000e+02 
126.042  5.01000000e+02 
126.006  4.72000000e+02 
125.970  4.65000000e+02 
125.934  4.74000000e+02 
125.898  4.76000000e+02 
125.862  5.09000000e+02 
125.827  4.71000000e+02 
125.791  4.75000000e+02 
125.755  4.94000000e+02 
125.719  4.39000000e+02 
125.683  4.69000000e+02 
125.647  4.66000000e+02 
125.611  4.91000000e+02 
125.575  4.75000000e+02 
125.539  4.52000000e+02 
125.503  4.48000000e+02 
125.467  4.54000000e+02 
125.431  4.68000000e+02 
125.395  4.93000000e+02 
125.359  4.43000000e+02 
125.323  4.50000000e+02 
125.288  4.82000000e+02 
125.252  4.90000000e+02 
125.216  4.65000000e+02 
125.180  4.69000000e+02 
125.144  4.82000000e+02 
125.108  4.51000000e+02 
125.072  4.67000000e+02 
125.036  4.88000000e+02 
125.000  4.53000000e+02 
124.964  4.78000000e+02 
124.928  4.35000000e+02 
124.892  4.54000000e+02 
124.856  4.71000000e+02 
124.820  4.57000000e+02 
124.784  4.83000000e+02 
124.748  4.78000000e+02 
124.713  4.71000000e+02 
124.677  4.89000000e+02 
124.641  4.74000000e+02 
124.605  4.80000000e+02 
124.569  4.84000000e+02 
124.533  4.51000000e+02 
124.497  5.07000000e+02 
124.461  4.85000000e+02 
124.425  4.87000000e+02 
124.389  4.86000000e+02 
124.353  4.96000000e+02 
124.317  4.67000000e+02 
124.281  4.66000000e+02 
124.245  4.64000000e+02 
124.209  4.45000000e+02 
124.173  4.56000000e+02 
124.138  4.60000000e+02 
124.102  4.51000000e+02 
124.066  4.13000000e+02 
124.030  4.53000000e+02 
123.994  5.20000000e+02 
123.958  4.90000000e+02 
123.922  5.18000000e+02 
123.886  4.41000000e+02 
123.850  4.81000000e+02 
123.814  4.71000000e+02 
123.778  4.58000000e+02 
123.742  4.67000000e+02 
123.706  4.72000000e+02 
123.670  4.97000000e+02 
123.634  4.70000000e+02 
123.598  5.09000000e+02 
123.562  5.03000000e+02 
123.527  5.02000000e+02 
123.491  4.85000000e+02 
123.455  4.59000000e+02 
123.419  4.40000000e+02 
123.383  4.53000000e+02 
123.347  5.14000000e+02 
123.311  4.69000000e+02 
123.275  4.81000000e+02 
123.239  4.58000000e+02 
123.203  4.41000000e+02 
123.167  4.46000000e+02 
123.131  4.53000000e+02 
123.095  4.96000000e+02 
123.059  4.46000000e+02 
123.023  4.56000000e+02 
122.987  4.54000000e+02 
122.952  5.12000000e+02 
122.916  4.97000000e+02 
122.880  4.91000000e+02 
122.844  4.50000000e+02 
122.808  4.82000000e+02 
122.772  4.64000000e+02 
122.736  4.67000000e+02 
122.700  4.64000000e+02 
122.664  4.79000000e+02 
122.628  4.38000000e+02 
122.592  4.71000000e+02 
122.556  4.40000000e+02 
122.520  5.00000000e+02 
122.484  4.88000000e+02 
122.448  4.62000000e+02 
122.413  4.58000000e+02 
122.377  4.99000000e+02 
122.341  4.63000000e+02 
122.305  4.85000000e+02 
122.269  5.00000000e+02 
122.233  5.08000000e+02 
122.197  4.88000000e+02 
122.161  4.62000000e+02 
122.125  4.73000000e+02 
122.089  4.97000000e+02 
122.053  5.09000000e+02 
122.017  4.68000000e+02 
121.981  4.77000000e+02 
121.945  4.94000000e+02 
121.909  4.57000000e+02 
121.873  4.64000000e+02 
121.838  4.77000000e+02 
121.802  5.01000000e+02 
121.766  4.98000000e+02 
121.730  4.44000000e+02 
121.694  4.62000000e+02 
121.658  4.90000000e+02 
121.622  4.76000000e+02 
121.586  4.52000000e+02 
121.550  4.77000000e+02 
121.514  4.82000000e+02 
121.478  4.63000000e+02 
121.442  4.88000000e+02 
121.406  4.84000000e+02 
121.370  4.50000000e+02 
121.334  4.69000000e+02 
121.298  4.36000000e+02 
121.263  4.78000000e+02 
121.227  4.71000000e+02 
121.191  4.45000000e+02 
121.155  5.11000000e+02 
121.119  4.78000000e+02 
121.083  5.10000000e+02 
121.047  4.62000000e+02 
121.011  4.84000000e+02 
120.975  4.81000000e+02 
120.939  4.71000000e+02 
120.903  4.86000000e+02 
120.867  5.08000000e+02 
120.831  4.75000000e+02 
120.795  4.71000000e+02 
120.759  4.83000000e+02 
120.723  4.34000000e+02 
120.688  4.67000000e+02 
120.652  4.63000000e+02 
120.616  4.95000000e+02 
120.580  4.82000000e+02 
120.544  4.47000000e+02 
120.508  4.33000000e+02 
120.472  4.56000000e+02 
120.436  4.88000000e+02 
120.400  4.68000000e+02 
120.364  4.69000000e+02 
120.328  5.06000000e+02 
120.292  4.18000000e+02 
120.256  4.75000000e+02 
120.220  4.95000000e+02 
120.184  4.94000000e+02 
120.148  4.54000000e+02 
120.112  5.00000000e+02 
120.077  4.61000000e+02 
120.041  4.75000000e+02 
120.005  5.06000000e+02 
119.969  4.90000000e+02 
119.933  4.34000000e+02 
119.897  4.49000000e+02 
119.861  4.20000000e+02 
119.825  4.39000000e+02 
119.789  4.65000000e+02 
119.753  4.69000000e+02 
119.717  4.84000000e+02 
119.681  4.63000000e+02 
119.645  4.46000000e+02 
119.609  4.39000000e+02 
119.573  4.62000000e+02 
119.538  4.52000000e+02 
119.502  4.91000000e+02 
119.466  4.97000000e+02 
119.430  4.90000000e+02 
119.394  4.61000000e+02 
119.358  5.30000000e+02 
119.322  4.49000000e+02 
119.286  4.48000000e+02 
119.250  4.93000000e+02 
119.214  4.89000000e+02 
119.178  4.80000000e+02 
119.142  4.77000000e+02 
119.106  5.02000000e+02 
119.070  4.87000000e+02 
119.034  4.81000000e+02 
118.998  4.75000000e+02 
118.963  4.86000000e+02 
118.927  4.88000000e+02 
118.891  4.34000000e+02 
118.855  5.06000000e+02 
118.819  4.99000000e+02 
118.783  4.80000000e+02 
118.747  4.84000000e+02 
118.711  4.85000000e+02 
118.675  5.10000000e+02 
118.639  5.15000000e+02 
118.603  4.68000000e+02 
118.567  4.77000000e+02 
118.531  5.07000000e+02 
118.495  4.86000000e+02 
118.459  4.70000000e+02 
118.423  4.00000000e+02 
118.388  4.65000000e+02 
118.352  5.03000000e+02 
118.316  4.04000000e+02 
118.280  4.69000000e+02 
118.244  4.92000000e+02 
118.208  4.94000000e+02 
118.172  4.71000000e+02 
118.136  4.70000000e+02 
118.100  4.73000000e+02 
118.064  4.95000000e+02 
118.028  4.45000000e+02 
117.992  5.02000000e+02 
117.956  4.92000000e+02 
117.920  4.91000000e+02 
117.884  4.64000000e+02 
117.848  4.68000000e+02 
117.812  4.65000000e+02 
117.777  4.80000000e+02 
117.741  4.59000000e+02 
117.705  5.17000000e+02 
117.669  4.85000000e+02 
117.633  5.17000000e+02 
117.597  4.65000000e+02 
117.561  5.14000000e+02 
117.525  4.60000000e+02 
117.489  4.54000000e+02 
117.453  4.87000000e+02 
117.417  5.24000000e+02 
117.381  5.08000000e+02 
117.345  5.36000000e+02 
117.309  5.03000000e+02 
117.273  5.17000000e+02 
117.237  4.85000000e+02 
117.202  4.34000000e+02 
117.166  4.63000000e+02 
117.130  4.82000000e+02 
117.094  4.81000000e+02 
117.058  4.70000000e+02 
117.022  4.48000000e+02 
116.986  4.86000000e+02 
116.950  4.55000000e+02 
116.914  4.42000000e+02 
116.878  5.17000000e+02 
116.842  4.44000000e+02 
116.806  4.61000000e+02 
116.770  4.55000000e+02 
116.734  4.75000000e+02 
116.698  4.82000000e+02 
116.663  4.64000000e+02 
116.627  4.66000000e+02 
116.591  4.89000000e+02 
116.555  4.84000000e+02 
116.519  4.50000000e+02 
116.483  4.78000000e+02 
116.447  5.12000000e+02 
116.411  4.61000000e+02 
116.375  4.85000000e+02 
116.339  5.15000000e+02 
116.303  5.13000000e+02 
116.267  4.65000000e+02 
116.231  4.45000000e+02 
116.195  4.90000000e+02 
116.159  4.86000000e+02 
116.123  4.66000000e+02 
116.088  4.86000000e+02 
116.052  4.63000000e+02 
116.016  5.13000000e+02 
115.980  4.43000000e+02 
115.944  4.77000000e+02 
115.908  4.79000000e+02 
115.872  4.94000000e+02 
115.836  4.89000000e+02 
115.800  4.86000000e+02 
115.764  5.09000000e+02 
115.728  4.70000000e+02 
115.692  4.49000000e+02 
115.656  5.22000000e+02 
115.620  4.76000000e+02 
115.584  4.96000000e+02 
115.548  4.87000000e+02 
115.513  5.21000000e+02 
115.477  5.14000000e+02 
115.441  4.72000000e+02 
115.405  5.21000000e+02 
115.369  5.09000000e+02 
115.333  5.18000000e+02 
115.297  4.82000000e+02 
115.261  4.87000000e+02 
115.225  4.97000000e+02 
115.189  5.02000000e+02 
115.153  5.21000000e+02 
115.117  4.83000000e+02 
115.081  4.98000000e+02 
115.045  5.01000000e+02 
115.009  4.92000000e+02 
114.973  4.87000000e+02 
114.938  5.00000000e+02 
114.902  5.53000000e+02 
114.866  4.87000000e+02 
114.830  5.10000000e+02 
114.794  4.75000000e+02 
114.758  4.80000000e+02 
114.722  4.57000000e+02 
114.686  4.93000000e+02 
114.650  5.05000000e+02 
114.614  4.84000000e+02 
114.578  5.57000000e+02 
114.542  4.99000000e+02 
114.506  5.17000000e+02 
114.470  5.27000000e+02 
114.434  4.90000000e+02 
114.398  4.93000000e+02 
114.362  4.95000000e+02 
114.327  4.52000000e+02 
114.291  5.00000000e+02 
114.255  4.80000000e+02 
114.219  5.26000000e+02 
114.183  4.74000000e+02 
114.147  4.85000000e+02 
114.111  4.93000000e+02 
114.075  5.14000000e+02 
114.039  4.99000000e+02 
114.003  5.06000000e+02 
113.967  4.89000000e+02 
113.931  5.22000000e+02 
113.895  4.57000000e+02 
113.859  4.80000000e+02 
113.823  4.83000000e+02 
113.788  4.73000000e+02 
113.752  4.81000000e+02 
113.716  4.57000000e+02 
113.680  4.97000000e+02 
113.644  5.25000000e+02 
113.608  5.21000000e+02 
113.572  4.65000000e+02 
113.536  5.08000000e+02 
113.500  5.62000000e+02 
113.464  5.25000000e+02 
113.428  4.80000000e+02 
113.392  4.75000000e+02 
113.356  4.77000000e+02 
113.320  4.74000000e+02 
113.284  5.21000000e+02 
113.248  5.34000000e+02 
113.213  5.00000000e+02 
113.177  5.31000000e+02 
113.141  5.05000000e+02 
113.105  5.15000000e+02 
113.069  5.17000000e+02 
113.033  5.13000000e+02 
112.997  4.99000000e+02 
112.961  5.32000000e+02 
112.925  5.04000000e+02 
112.889  4.95000000e+02 
112.853  5.08000000e+02 
112.817  4.74000000e+02 
112.781  4.80000000e+02 
112.745  5.11000000e+02 
112.709  5.35000000e+02 
112.673  5.16000000e+02 
112.638  5.09000000e+02 
112.602  5.59000000e+02 
112.566  4.94000000e+02 
112.530  5.24000000e+02 
112.494  4.94000000e+02 
112.458  5.22000000e+02 
112.422  4.94000000e+02 
112.386  4.88000000e+02 
112.350  4.97000000e+02 
112.314  5.02000000e+02 
112.278  4.99000000e+02 
112.242  4.75000000e+02 
112.206  5.25000000e+02 
112.170  4.67000000e+02 
112.134  5.05000000e+02 
112.098  4.96000000e+02 
112.062  4.85000000e+02 
112.027  5.24000000e+02 
111.991  4.95000000e+02 
111.955  5.06000000e+02 
111.919  5.05000000e+02 
111.883  5.28000000e+02 
111.847  4.74000000e+02 
111.811  4.85000000e+02 
111.775  5.59000000e+02 
111.739  5.10000000e+02 
111.703  4.97000000e+02 
111.667  5.18000000e+02 
111.631  4.96000000e+02 
111.595  5.06000000e+02 
111.559  4.57000000e+02 
111.523  4.84000000e+02 
111.487  5.44000000e+02 
111.452  5.34000000e+02 
111.416  5.09000000e+02 
111.380  4.90000000e+02 
111.344  4.94000000e+02 
111.308  5.02000000e+02 
111.272  4.95000000e+02 
111.236  5.01000000e+02 
111.200  5.01000000e+02 
111.164  4.77000000e+02 
111.128  4.97000000e+02 
111.092  4.98000000e+02 
111.056  5.08000000e+02 
111.020  4.83000000e+02 
110.984  4.89000000e+02 
110.948  4.88000000e+02 
110.913  5.42000000e+02 
110.877  4.88000000e+02 
110.841  5.11000000e+02 
110.805  4.93000000e+02 
110.769  4.81000000e+02 
110.733  4.81000000e+02 
110.697  4.79000000e+02 
110.661  4.68000000e+02 
110.625  4.78000000e+02 
110.589  4.67000000e+02 
110.553  4.61000000e+02 
110.517  5.15000000e+02 
110.481  5.39000000e+02 
110.445  4.80000000e+02 
110.409  4.98000000e+02 
110.373  5.35000000e+02 
110.338  4.70000000e+02 
110.302  4.48000000e+02 
110.266  5.12000000e+02 
110.230  5.20000000e+02 
110.194  4.88000000e+02 
110.158  4.93000000e+02 
110.122  4.67000000e+02 
110.086  4.60000000e+02 
110.050  4.61000000e+02 
110.014  4.96000000e+02 
109.978  5.08000000e+02 
109.942  4.67000000e+02 
109.906  4.75000000e+02 
109.870  4.55000000e+02 
109.834  5.14000000e+02 
109.798  5.17000000e+02 
109.763  5.06000000e+02 
109.727  4.82000000e+02 
109.691  5.04000000e+02 
109.655  4.70000000e+02 
109.619  4.83000000e+02 
109.583  4.47000000e+02 
109.547  4.86000000e+02 
109.511  4.91000000e+02 
109.475  5.02000000e+02 
109.439  4.96000000e+02 
109.403  4.85000000e+02 
109.367  4.59000000e+02 
109.331  5.13000000e+02 
109.295  4.96000000e+02 
109.259  4.68000000e+02 
109.223  4.71000000e+02 
109.188  4.99000000e+02 
109.152  4.89000000e+02 
109.116  4.60000000e+02 
109.080  4.91000000e+02 
109.044  4.69000000e+02 
109.008  4.87000000e+02 
108.972  4.63000000e+02 
108.936  5.14000000e+02 
108.900  5.07000000e+02 
108.864  4.98000000e+02 
108.828  4.97000000e+02 
108.792  5.23000000e+02 
108.756  4.55000000e+02 
108.720  4.72000000e+02 
108.684  4.47000000e+02 
108.648  4.97000000e+02 
108.612  4.68000000e+02 
108.577  4.87000000e+02 
108.541  5.03000000e+02 
108.505  4.78000000e+02 
108.469  5.07000000e+02 
108.433  4.70000000e+02 
108.397  4.65000000e+02 
108.361  4.88000000e+02 
108.325  4.74000000e+02 
108.289  4.46000000e+02 
108.253  5.11000000e+02 
108.217  4.66000000e+02 
108.181  4.60000000e+02 
108.145  4.88000000e+02 
108.109  4.67000000e+02 
108.073  4.68000000e+02 
108.038  4.26000000e+02 
108.002  4.71000000e+02 
107.966  4.92000000e+02 
107.930  4.88000000e+02 
107.894  4.79000000e+02 
107.858  4.72000000e+02 
107.822  4.53000000e+02 
107.786  5.01000000e+02 
107.750  4.72000000e+02 
107.714  4.93000000e+02 
107.678  4.94000000e+02 
107.642  4.67000000e+02 
107.606  4.70000000e+02 
107.570  5.18000000e+02 
107.534  4.35000000e+02 
107.498  4.42000000e+02 
107.463  5.06000000e+02 
107.427  4.62000000e+02 
107.391  4.76000000e+02 
107.355  4.79000000e+02 
107.319  4.69000000e+02 
107.283  4.60000000e+02 
107.247  4.64000000e+02 
107.211  4.98000000e+02 
107.175  4.60000000e+02 
107.139  4.85000000e+02 
107.103  4.31000000e+02 
107.067  4.66000000e+02 
107.031  4.62000000e+02 
106.995  4.69000000e+02 
106.959  4.35000000e+02 
106.923  4.72000000e+02 
106.888  4.34000000e+02 
106.852  4.57000000e+02 
106.816  4.59000000e+02 
106.780  4.65000000e+02 
106.744  4.90000000e+02 
106.708  4.89000000e+02 
106.672  4.54000000e+02 
106.636  4.97000000e+02 
106.600  4.51000000e+02 
106.564  4.65000000e+02 
106.528  4.53000000e+02 
106.492  4.80000000e+02 
106.456  5.00000000e+02 
106.420  4.71000000e+02 
106.384  4.72000000e+02 
106.348  4.74000000e+02 
106.312  4.58000000e+02 
106.277  4.31000000e+02 
106.241  4.78000000e+02 
106.205  4.70000000e+02 
106.169  4.39000000e+02 
106.133  4.94000000e+02 
106.097  4.38000000e+02 
106.061  4.62000000e+02 
106.025  5.05000000e+02 
105.989  4.76000000e+02 
105.953  4.87000000e+02 
105.917  4.81000000e+02 
105.881  4.71000000e+02 
105.845  4.49000000e+02 
105.809  4.84000000e+02 
105.773  4.61000000e+02 
105.738  4.61000000e+02 
105.702  4.99000000e+02 
105.666  4.17000000e+02 
105.630  4.98000000e+02 
105.594  4.63000000e+02 
105.558  4.71000000e+02 
105.522  4.38000000e+02 
105.486  4.81000000e+02 
105.450  4.46000000e+02 
105.414  4.70000000e+02 
105.378  4.81000000e+02 
105.342  4.57000000e+02 
105.306  4.81000000e+02 
105.270  4.87000000e+02 
105.234  4.71000000e+02 
105.198  4.89000000e+02 
105.163  4.64000000e+02 
105.127  4.68000000e+02 
105.091  4.54000000e+02 
105.055  4.77000000e+02 
105.019  4.43000000e+02 
104.983  5.06000000e+02 
104.947  4.71000000e+02 
104.911  4.64000000e+02 
104.875  4.54000000e+02 
104.839  4.81000000e+02 
104.803  4.60000000e+02 
104.767  5.20000000e+02 
104.731  4.82000000e+02 
104.695  4.81000000e+02 
104.659  4.49000000e+02 
104.623  4.67000000e+02 
104.588  4.80000000e+02 
104.552  4.90000000e+02 
104.516  4.79000000e+02 
104.480  4.75000000e+02 
104.444  4.64000000e+02 
104.408  5.14000000e+02 
104.372  4.45000000e+02 
104.336  4.95000000e+02 
104.300  4.98000000e+02 
104.264  4.94000000e+02 
104.228  5.43000000e+02 
104.192  5.12000000e+02 
104.156  5.16000000e+02 
104.120  4.97000000e+02 
104.084  4.65000000e+02 
104.048  4.36000000e+02 
104.013  4.49000000e+02 
103.977  4.75000000e+02 
103.941  4.57000000e+02 
103.905  4.83000000e+02 
103.869  4.97000000e+02 
103.833  5.00000000e+02 
103.797  5.02000000e+02 
103.761  4.86000000e+02 
103.725  4.98000000e+02 
103.689  4.81000000e+02 
103.653  4.85000000e+02 
103.617  4.73000000e+02 
103.581  4.66000000e+02 
103.545  4.80000000e+02 
103.509  5.29000000e+02 
103.473  4.64000000e+02 
103.438  4.89000000e+02 
103.402  4.78000000e+02 
103.366  4.86000000e+02 
103.330  4.98000000e+02 
103.294  4.61000000e+02 
103.258  4.68000000e+02 
103.222  5.28000000e+02 
103.186  4.46000000e+02 
103.150  5.11000000e+02 
103.114  4.89000000e+02 
103.078  5.02000000e+02 
103.042  4.48000000e+02 
103.006  4.79000000e+02 
102.970  4.78000000e+02 
102.934  4.79000000e+02 
102.898  5.03000000e+02 
102.863  5.07000000e+02 
102.827  4.97000000e+02 
102.791  4.77000000e+02 
102.755  5.00000000e+02 
102.719  4.80000000e+02 
102.683  4.73000000e+02 
102.647  4.60000000e+02 
102.611  4.78000000e+02 
102.575  4.78000000e+02 
102.539  4.68000000e+02 
102.503  4.91000000e+02 
102.467  5.04000000e+02 
102.431  4.95000000e+02 
102.395  4.77000000e+02 
102.359  5.11000000e+02 
102.323  4.93000000e+02 
102.288  4.62000000e+02 
102.252  4.72000000e+02 
102.216  4.80000000e+02 
102.180  4.69000000e+02 
102.144  4.31000000e+02 
102.108  4.83000000e+02 
102.072  4.57000000e+02 
102.036  4.53000000e+02 
102.000  4.93000000e+02 
101.964  4.71000000e+02 
101.928  4.78000000e+02 
101.892  4.64000000e+02 
101.856  4.61000000e+02 
101.820  4.73000000e+02 
101.784  4.86000000e+02 
101.748  4.51000000e+02 
101.713  5.06000000e+02 
101.677  4.61000000e+02 
101.641  4.57000000e+02 
101.605  4.99000000e+02 
101.569  4.78000000e+02 
101.533  4.06000000e+02 
101.497  4.52000000e+02 
101.461  4.94000000e+02 
101.425  4.73000000e+02 
101.389  4.71000000e+02 
101.353  5.08000000e+02 
101.317  4.88000000e+02 
101.281  5.08000000e+02 
101.245  4.52000000e+02 
101.209  4.43000000e+02 
101.173  4.70000000e+02 
101.138  4.68000000e+02 
101.102  4.67000000e+02 
101.066  4.79000000e+02 
101.030  4.61000000e+02 
100.994  4.76000000e+02 
100.958  4.68000000e+02 
100.922  4.99000000e+02 
100.886  4.13000000e+02 
100.850  4.93000000e+02 
100.814  4.81000000e+02 
100.778  4.34000000e+02 
100.742  4.59000000e+02 
100.706  4.33000000e+02 
100.670  4.91000000e+02 
100.634  5.06000000e+02 
100.598  5.05000000e+02 
100.562  4.89000000e+02 
100.527  4.88000000e+02 
100.491  4.41000000e+02 
100.455  4.81000000e+02 
100.419  4.82000000e+02 
100.383  4.45000000e+02 
100.347  5.13000000e+02 
100.311  4.72000000e+02 
100.275  4.52000000e+02 
100.239  4.56000000e+02 
100.203  4.90000000e+02 
100.167  5.15000000e+02 
100.131  4.59000000e+02 
100.095  5.06000000e+02 
100.059  5.06000000e+02 
100.023  4.75000000e+02 
99.988   5.07000000e+02 
99.952   5.16000000e+02 
99.916   5.20000000e+02 
99.880   5.25000000e+02 
99.844   5.12000000e+02 
99.808   5.22000000e+02 
99.772   4.68000000e+02 
99.736   4.69000000e+02 
99.700   4.83000000e+02 
99.664   5.14000000e+02 
99.628   4.91000000e+02 
99.592   4.96000000e+02 
99.556   5.09000000e+02 
99.520   4.96000000e+02 
99.484   4.99000000e+02 
99.448   4.94000000e+02 
99.413   5.01000000e+02 
99.377   4.94000000e+02 
99.341   5.00000000e+02 
99.305   4.92000000e+02 
99.269   4.69000000e+02 
99.233   4.92000000e+02 
99.197   4.84000000e+02 
99.161   5.34000000e+02 
99.125   5.01000000e+02 
99.089   5.27000000e+02 
99.053   5.01000000e+02 
99.017   5.05000000e+02 
98.981   5.33000000e+02 
98.945   4.68000000e+02 
98.909   5.12000000e+02 
98.873   5.38000000e+02 
98.838   5.03000000e+02 
98.802   5.35000000e+02 
98.766   4.91000000e+02 
98.730   5.44000000e+02 
98.694   5.69000000e+02 
98.658   5.38000000e+02 
98.622   5.03000000e+02 
98.586   5.02000000e+02 
98.550   5.12000000e+02 
98.514   4.95000000e+02 
98.478   5.04000000e+02 
98.442   5.28000000e+02 
98.406   5.38000000e+02 
98.370   5.23000000e+02 
98.334   5.17000000e+02 
98.298   5.15000000e+02 
98.263   4.89000000e+02 
98.227   5.09000000e+02 
98.191   5.39000000e+02 
98.155   5.00000000e+02 
98.119   5.45000000e+02 
98.083   5.28000000e+02 
98.047   4.99000000e+02 
98.011   4.92000000e+02 
97.975   5.16000000e+02 
97.939   4.65000000e+02 
97.903   5.11000000e+02 
97.867   4.78000000e+02 
97.831   5.44000000e+02 
97.795   5.39000000e+02 
97.759   4.91000000e+02 
97.723   5.23000000e+02 
97.688   5.09000000e+02 
97.652   5.37000000e+02 
97.616   5.68000000e+02 
97.580   5.16000000e+02 
97.544   5.32000000e+02 
97.508   5.37000000e+02 
97.472   5.84000000e+02 
97.436   4.92000000e+02 
97.400   5.47000000e+02 
97.364   5.33000000e+02 
97.328   5.52000000e+02 
97.292   5.22000000e+02 
97.256   5.60000000e+02 
97.220   5.16000000e+02 
97.184   5.18000000e+02 
97.148   5.28000000e+02 
97.113   5.10000000e+02 
97.077   5.22000000e+02 
97.041   5.47000000e+02 
97.005   5.17000000e+02 
96.969   5.03000000e+02 
96.933   5.14000000e+02 
96.897   4.85000000e+02 
96.861   5.20000000e+02 
96.825   5.16000000e+02 
96.789   4.91000000e+02 
96.753   5.04000000e+02 
96.717   4.92000000e+02 
96.681   5.28000000e+02 
96.645   5.54000000e+02 
96.609   5.33000000e+02 
96.573   4.94000000e+02 
96.538   4.91000000e+02 
96.502   5.17000000e+02 
96.466   5.25000000e+02 
96.430   5.13000000e+02 
96.394   4.95000000e+02 
96.358   5.15000000e+02 
96.322   5.43000000e+02 
96.286   5.17000000e+02 
96.250   5.23000000e+02 
96.214   5.02000000e+02 
96.178   4.59000000e+02 
96.142   4.91000000e+02 
96.106   5.17000000e+02 
96.070   5.26000000e+02 
96.034   4.96000000e+02 
95.998   4.78000000e+02 
95.963   4.59000000e+02 
95.927   4.74000000e+02 
95.891   4.85000000e+02 
95.855   4.82000000e+02 
95.819   5.12000000e+02 
95.783   5.05000000e+02 
95.747   5.01000000e+02 
95.711   4.76000000e+02 
95.675   4.70000000e+02 
95.639   4.67000000e+02 
95.603   4.84000000e+02 
95.567   4.46000000e+02 
95.531   4.66000000e+02 
95.495   4.88000000e+02 
95.459   5.15000000e+02 
95.423   4.54000000e+02 
95.388   4.22000000e+02 
95.352   4.42000000e+02 
95.316   4.47000000e+02 
95.280   4.60000000e+02 
95.244   4.90000000e+02 
95.208   4.68000000e+02 
95.172   5.03000000e+02 
95.136   4.65000000e+02 
95.100   5.05000000e+02 
95.064   4.35000000e+02 
95.028   4.74000000e+02 
94.992   4.83000000e+02 
94.956   4.79000000e+02 
94.920   4.22000000e+02 
94.884   4.61000000e+02 
94.848   4.14000000e+02 
94.812   4.86000000e+02 
94.777   4.41000000e+02 
94.741   4.21000000e+02 
94.705   4.26000000e+02 
94.669   4.76000000e+02 
94.633   4.27000000e+02 
94.597   4.33000000e+02 
94.561   4.78000000e+02 
94.525   4.53000000e+02 
94.489   4.42000000e+02 
94.453   4.38000000e+02 
94.417   4.33000000e+02 
94.381   4.52000000e+02 
94.345   4.28000000e+02 
94.309   4.19000000e+02 
94.273   4.52000000e+02 
94.238   4.34000000e+02 
94.202   4.28000000e+02 
94.166   4.37000000e+02 
94.130   4.50000000e+02 
94.094   4.65000000e+02 
94.058   4.28000000e+02 
94.022   4.46000000e+02 
93.986   3.94000000e+02 
93.950   4.40000000e+02 
93.914   4.59000000e+02 
93.878   4.13000000e+02 
93.842   4.18000000e+02 
93.806   4.03000000e+02 
93.770   4.31000000e+02 
93.734   4.24000000e+02 
93.698   4.10000000e+02 
93.663   4.04000000e+02 
93.627   3.94000000e+02 
93.591   3.96000000e+02 
93.555   4.13000000e+02 
93.519   4.28000000e+02 
93.483   4.02000000e+02 
93.447   4.18000000e+02 
93.411   4.15000000e+02 
93.375   4.59000000e+02 
93.339   3.75000000e+02 
93.303   4.55000000e+02 
93.267   4.21000000e+02 
93.231   4.32000000e+02 
93.195   4.23000000e+02 
93.159   4.17000000e+02 
93.123   4.25000000e+02 
93.088   4.28000000e+02 
93.052   4.06000000e+02 
93.016   4.04000000e+02 
92.980   4.17000000e+02 
92.944   4.17000000e+02 
92.908   4.20000000e+02 
92.872   4.56000000e+02 
92.836   4.18000000e+02 
92.800   4.26000000e+02 
92.764   4.18000000e+02 
92.728   4.35000000e+02 
92.692   3.68000000e+02 
92.656   4.37000000e+02 
92.620   4.11000000e+02 
92.584   4.34000000e+02 
92.548   4.11000000e+02 
92.513   4.15000000e+02 
92.477   3.95000000e+02 
92.441   4.19000000e+02 
92.405   4.19000000e+02 
92.369   3.96000000e+02 
92.333   4.13000000e+02 
92.297   4.16000000e+02 
92.261   4.25000000e+02 
92.225   3.81000000e+02 
92.189   3.85000000e+02 
92.153   4.07000000e+02 
92.117   4.30000000e+02 
92.081   4.02000000e+02 
92.045   4.08000000e+02 
92.009   3.96000000e+02 
91.973   3.99000000e+02 
91.938   4.26000000e+02 
91.902   4.01000000e+02 
91.866   4.28000000e+02 
91.830   4.07000000e+02 
91.794   4.05000000e+02 
91.758   4.32000000e+02 
91.722   4.07000000e+02 
91.686   4.25000000e+02 
91.650   3.97000000e+02 
91.614   4.20000000e+02 
91.578   4.20000000e+02 
91.542   4.01000000e+02 
91.506   4.17000000e+02 
91.470   4.27000000e+02 
91.434   4.45000000e+02 
91.398   4.47000000e+02 
91.363   3.60000000e+02 
91.327   4.17000000e+02 
91.291   4.22000000e+02 
91.255   4.32000000e+02 
91.219   4.06000000e+02 
91.183   4.25000000e+02 
91.147   4.22000000e+02 
91.111   4.09000000e+02 
91.075   3.99000000e+02 
91.039   4.29000000e+02 
91.003   3.94000000e+02 
90.967   4.30000000e+02 
90.931   4.28000000e+02 
90.895   4.06000000e+02 
90.859   4.41000000e+02 
90.823   4.37000000e+02 
90.788   4.33000000e+02 
90.752   4.07000000e+02 
90.716   3.94000000e+02 
90.680   4.36000000e+02 
90.644   4.09000000e+02 
90.608   3.99000000e+02 
90.572   4.23000000e+02 
90.536   4.02000000e+02 
90.500   4.27000000e+02 
90.464   4.22000000e+02 
90.428   4.16000000e+02 
90.392   4.22000000e+02 
90.356   4.36000000e+02 
90.320   4.51000000e+02 
90.284   4.03000000e+02 
90.248   4.33000000e+02 
90.213   4.10000000e+02 
90.177   4.41000000e+02 
90.141   4.18000000e+02 
90.105   4.27000000e+02 
90.069   4.39000000e+02 
90.033   4.03000000e+02 
89.997   4.37000000e+02 
89.961   4.12000000e+02 
89.925   4.17000000e+02 
89.889   4.07000000e+02 
89.853   4.23000000e+02 
89.817   4.21000000e+02 
89.781   4.22000000e+02 
89.745   4.42000000e+02 
89.709   3.96000000e+02 
89.673   4.47000000e+02 
89.638   4.07000000e+02 
89.602   4.15000000e+02 
89.566   4.46000000e+02 
89.530   4.36000000e+02 
89.494   4.18000000e+02 
89.458   4.12000000e+02 
89.422   4.17000000e+02 
89.386   4.34000000e+02 
89.350   4.21000000e+02 
89.314   3.91000000e+02 
89.278   4.05000000e+02 
89.242   4.21000000e+02 
89.206   4.48000000e+02 
89.170   4.12000000e+02 
89.134   3.90000000e+02 
89.098   4.31000000e+02 
89.062   4.47000000e+02 
89.027   4.51000000e+02 
88.991   4.29000000e+02 
88.955   4.59000000e+02 
88.919   4.29000000e+02 
88.883   4.06000000e+02 
88.847   4.06000000e+02 
88.811   4.00000000e+02 
88.775   4.63000000e+02 
88.739   4.00000000e+02 
88.703   4.09000000e+02 
88.667   4.20000000e+02 
88.631   4.47000000e+02 
88.595   4.08000000e+02 
88.559   4.22000000e+02 
88.523   3.92000000e+02 
88.488   4.25000000e+02 
88.452   3.79000000e+02 
88.416   4.33000000e+02 
88.380   4.47000000e+02 
88.344   4.14000000e+02 
88.308   4.13000000e+02 
88.272   3.99000000e+02 
88.236   3.98000000e+02 
88.200   4.19000000e+02 
88.164   4.18000000e+02 
88.128   4.17000000e+02 
88.092   4.41000000e+02 
88.056   4.15000000e+02 
88.020   4.33000000e+02 
87.984   4.26000000e+02 
87.948   4.27000000e+02 
87.913   3.98000000e+02 
87.877   4.18000000e+02 
87.841   4.04000000e+02 
87.805   4.11000000e+02 
87.769   4.11000000e+02 
87.733   4.28000000e+02 
87.697   4.06000000e+02 
87.661   4.07000000e+02 
87.625   3.95000000e+02 
87.589   3.89000000e+02 
87.553   3.92000000e+02 
87.517   3.90000000e+02 

