EXPERIMENT FILE
Version = 2

[ Experiment Parameters ]
Experiment Description= <none> 
Number_of_Regions_in_Experiment= 1 

Original_File_name= C:\alexesca\data\0827_200W.xps 
Instrument= HP ESCA West
Date= 08-27-2012
Time=  14:26:41

[ Layer Parameters ]
Layer_Type= XPS

[ Region 1 Parameters ]
Region_Description = Au Dithered Scan Test              
BEcenter(eV) = 91.000000
BEwidth(eV) = 10.000000
BEstep(eV) = 0.035937
Dwell_Time(sec) = 1.000000
N_o_scans = 1  
N_o_Channels = 278  
Scan_mode = 0  (DITHERED)

[ L= 1 R= 1 ]
BEcenter= 91.000  
BEwidth= -9.955  
Excitation= 1486.600
Time_p_channel= 256.000 
Size= 278
95.977   1.70000000e+01 
95.941   1.60000000e+01 
95.905   2.30000000e+01 
95.870   2.30000000e+01 
95.834   3.40000000e+01 
95.798   1.90000000e+01 
95.762   3.00000000e+01 
95.726   1.60000000e+01 
95.690   1.80000000e+01 
95.654   1.80000000e+01 
95.618   2.60000000e+01 
95.582   2.40000000e+01 
95.546   3.00000000e+01 
95.510   1.50000000e+01 
95.474   1.60000000e+01 
95.438   1.60000000e+01 
95.402   1.40000000e+01 
95.366   2.20000000e+01 
95.330   1.90000000e+01 
95.295   2.80000000e+01 
95.259   2.20000000e+01 
95.223   2.20000000e+01 
95.187   2.70000000e+01 
95.151   2.30000000e+01 
95.115   2.00000000e+01 
95.079   2.10000000e+01 
95.043   1.90000000e+01 
95.007   2.00000000e+01 
94.971   3.80000000e+01 
94.935   3.50000000e+01 
94.899   2.40000000e+01 
94.863   2.50000000e+01 
94.827   2.40000000e+01 
94.791   1.10000000e+01 
94.755   2.20000000e+01 
94.720   2.30000000e+01 
94.684   2.20000000e+01 
94.648   1.80000000e+01 
94.612   2.50000000e+01 
94.576   1.80000000e+01 
94.540   1.50000000e+01 
94.504   2.50000000e+01 
94.468   2.60000000e+01 
94.432   1.90000000e+01 
94.396   2.50000000e+01 
94.360   3.70000000e+01 
94.324   2.30000000e+01 
94.288   2.00000000e+01 
94.252   1.30000000e+01 
94.216   1.50000000e+01 
94.180   2.20000000e+01 
94.145   1.90000000e+01 
94.109   3.00000000e+01 
94.073   2.40000000e+01 
94.037   2.30000000e+01 
94.001   2.10000000e+01 
93.965   2.20000000e+01 
93.929   1.20000000e+01 
93.893   2.10000000e+01 
93.857   2.20000000e+01 
93.821   2.20000000e+01 
93.785   1.80000000e+01 
93.749   2.10000000e+01 
93.713   3.50000000e+01 
93.677   3.00000000e+01 
93.641   2.70000000e+01 
93.605   2.10000000e+01 
93.570   2.20000000e+01 
93.534   2.70000000e+01 
93.498   2.50000000e+01 
93.462   2.30000000e+01 
93.426   1.80000000e+01 
93.390   1.70000000e+01 
93.354   2.00000000e+01 
93.318   2.60000000e+01 
93.282   1.90000000e+01 
93.246   2.00000000e+01 
93.210   1.90000000e+01 
93.174   1.70000000e+01 
93.138   1.60000000e+01 
93.102   2.50000000e+01 
93.066   2.70000000e+01 
93.030   3.00000000e+01 
92.995   2.50000000e+01 
92.959   2.70000000e+01 
92.923   2.00000000e+01 
92.887   1.30000000e+01 
92.851   1.70000000e+01 
92.815   2.10000000e+01 
92.779   1.40000000e+01 
92.743   3.00000000e+01 
92.707   2.40000000e+01 
92.671   2.80000000e+01 
92.635   2.00000000e+01 
92.599   1.30000000e+01 
92.563   2.30000000e+01 
92.527   1.40000000e+01 
92.491   1.90000000e+01 
92.455   2.80000000e+01 
92.420   2.60000000e+01 
92.384   1.90000000e+01 
92.348   2.00000000e+01 
92.312   2.20000000e+01 
92.276   2.70000000e+01 
92.240   1.90000000e+01 
92.204   1.30000000e+01 
92.168   2.20000000e+01 
92.132   3.50000000e+01 
92.096   2.20000000e+01 
92.060   2.00000000e+01 
92.024   1.90000000e+01 
91.988   2.00000000e+01 
91.952   2.70000000e+01 
91.916   2.70000000e+01 
91.880   2.40000000e+01 
91.845   3.50000000e+01 
91.809   1.80000000e+01 
91.773   1.70000000e+01 
91.737   1.70000000e+01 
91.701   2.90000000e+01 
91.665   1.90000000e+01 
91.629   2.10000000e+01 
91.593   2.20000000e+01 
91.557   2.00000000e+01 
91.521   2.10000000e+01 
91.485   2.30000000e+01 
91.449   2.00000000e+01 
91.413   2.60000000e+01 
91.377   2.10000000e+01 
91.341   2.40000000e+01 
91.305   2.60000000e+01 
91.270   2.00000000e+01 
91.234   1.00000000e+01 
91.198   2.20000000e+01 
91.162   1.30000000e+01 
91.126   2.70000000e+01 
91.090   2.10000000e+01 
91.054   2.10000000e+01 
91.018   2.20000000e+01 
90.982   2.60000000e+01 
90.946   2.20000000e+01 
90.910   3.00000000e+01 
90.874   2.20000000e+01 
90.838   1.50000000e+01 
90.802   2.60000000e+01 
90.766   1.50000000e+01 
90.730   2.30000000e+01 
90.695   1.90000000e+01 
90.659   2.30000000e+01 
90.623   2.50000000e+01 
90.587   2.40000000e+01 
90.551   2.00000000e+01 
90.515   2.20000000e+01 
90.479   1.70000000e+01 
90.443   2.20000000e+01 
90.407   2.60000000e+01 
90.371   2.10000000e+01 
90.335   2.20000000e+01 
90.299   1.90000000e+01 
90.263   2.60000000e+01 
90.227   2.80000000e+01 
90.191   2.40000000e+01 
90.155   1.40000000e+01 
90.120   2.10000000e+01 
90.084   2.40000000e+01 
90.048   2.00000000e+01 
90.012   2.60000000e+01 
89.976   2.60000000e+01 
89.940   2.60000000e+01 
89.904   2.50000000e+01 
89.868   2.20000000e+01 
89.832   2.40000000e+01 
89.796   2.00000000e+01 
89.760   2.70000000e+01 
89.724   2.50000000e+01 
89.688   1.80000000e+01 
89.652   1.80000000e+01 
89.616   2.00000000e+01 
89.580   1.80000000e+01 
89.545   2.10000000e+01 
89.509   2.60000000e+01 
89.473   2.20000000e+01 
89.437   1.60000000e+01 
89.401   1.90000000e+01 
89.365   1.90000000e+01 
89.329   3.00000000e+01 
89.293   2.30000000e+01 
89.257   1.90000000e+01 
89.221   2.80000000e+01 
89.185   3.20000000e+01 
89.149   1.80000000e+01 
89.113   2.20000000e+01 
89.077   2.30000000e+01 
89.041   1.90000000e+01 
89.005   2.20000000e+01 
88.970   1.60000000e+01 
88.934   1.90000000e+01 
88.898   2.40000000e+01 
88.862   2.40000000e+01 
88.826   1.50000000e+01 
88.790   2.20000000e+01 
88.754   2.10000000e+01 
88.718   2.30000000e+01 
88.682   2.30000000e+01 
88.646   2.10000000e+01 
88.610   1.90000000e+01 
88.574   1.70000000e+01 
88.538   2.20000000e+01 
88.502   2.50000000e+01 
88.466   1.70000000e+01 
88.430   2.20000000e+01 
88.395   2.00000000e+01 
88.359   1.60000000e+01 
88.323   2.00000000e+01 
88.287   2.20000000e+01 
88.251   2.60000000e+01 
88.215   2.00000000e+01 
88.179   1.80000000e+01 
88.143   2.30000000e+01 
88.107   1.10000000e+01 
88.071   1.40000000e+01 
88.035   2.20000000e+01 
87.999   2.10000000e+01 
87.963   3.40000000e+01 
87.927   2.40000000e+01 
87.891   2.80000000e+01 
87.855   1.90000000e+01 
87.820   2.10000000e+01 
87.784   1.50000000e+01 
87.748   3.00000000e+01 
87.712   2.80000000e+01 
87.676   1.50000000e+01 
87.640   2.30000000e+01 
87.604   1.80000000e+01 
87.568   2.20000000e+01 
87.532   1.50000000e+01 
87.496   2.70000000e+01 
87.460   2.80000000e+01 
87.424   2.10000000e+01 
87.388   1.80000000e+01 
87.352   2.30000000e+01 
87.316   2.60000000e+01 
87.280   2.20000000e+01 
87.245   1.90000000e+01 
87.209   2.30000000e+01 
87.173   1.80000000e+01 
87.137   1.70000000e+01 
87.101   2.40000000e+01 
87.065   2.90000000e+01 
87.029   2.10000000e+01 
86.993   3.00000000e+01 
86.957   2.20000000e+01 
86.921   1.40000000e+01 
86.885   2.20000000e+01 
86.849   1.90000000e+01 
86.813   2.40000000e+01 
86.777   2.20000000e+01 
86.741   2.70000000e+01 
86.705   2.10000000e+01 
86.670   2.70000000e+01 
86.634   1.60000000e+01 
86.598   1.40000000e+01 
86.562   8.00000000e+00 
86.526   2.20000000e+01 
86.490   2.50000000e+01 
86.454   1.20000000e+01 
86.418   1.40000000e+01 
86.382   1.60000000e+01 
86.346   1.60000000e+01 
86.310   1.80000000e+01 
86.274   1.80000000e+01 
86.238   2.40000000e+01 
86.202   2.10000000e+01 
86.166   2.30000000e+01 
86.130   3.00000000e+01 
86.095   2.50000000e+01 
86.059   2.50000000e+01 
86.023   2.50000000e+01 

