EXPERIMENT FILE
Version = 2

[ Experiment Parameters ]
Experiment Description= <none> 
Number_of_Regions_in_Experiment= 1 

Original_File_name= C:\alexesca\data\0821AuTest.xps 
Instrument= HP ESCA West
Date= 08-21-2012
Time=  16:00:46

[ Layer Parameters ]
Layer_Type= XPS

[ Region 1 Parameters ]
Region_Description = Au Dithered Scan Test              
BEcenter(eV) = 91.000000
BEwidth(eV) = 10.000000
BEstep(eV) = 0.035937
Dwell_Time(sec) = 1.000000
N_o_scans = 1  
N_o_Channels = 278  
Scan_mode = 0  (DITHERED)

[ L= 1 R= 1 ]
BEcenter= 91.000  
BEwidth= -9.955  
Excitation= 1486.600
Time_p_channel= 256.000 
Size= 278
95.977   8.06000000e+02 
95.941   7.53000000e+02 
95.905   7.08000000e+02 
95.870   7.18000000e+02 
95.834   6.69000000e+02 
95.798   6.77000000e+02 
95.762   6.88000000e+02 
95.726   6.06000000e+02 
95.690   6.28000000e+02 
95.654   6.81000000e+02 
95.618   6.10000000e+02 
95.582   6.01000000e+02 
95.546   6.34000000e+02 
95.510   6.53000000e+02 
95.474   6.36000000e+02 
95.438   6.56000000e+02 
95.402   6.39000000e+02 
95.366   6.32000000e+02 
95.330   7.02000000e+02 
95.295   6.92000000e+02 
95.259   6.95000000e+02 
95.223   6.35000000e+02 
95.187   6.43000000e+02 
95.151   6.84000000e+02 
95.115   7.09000000e+02 
95.079   6.65000000e+02 
95.043   6.56000000e+02 
95.007   6.53000000e+02 
94.971   6.53000000e+02 
94.935   6.76000000e+02 
94.899   6.96000000e+02 
94.863   6.68000000e+02 
94.827   7.68000000e+02 
94.791   7.35000000e+02 
94.755   7.56000000e+02 
94.720   7.57000000e+02 
94.684   7.63000000e+02 
94.648   7.48000000e+02 
94.612   7.52000000e+02 
94.576   7.38000000e+02 
94.540   7.06000000e+02 
94.504   8.05000000e+02 
94.468   7.25000000e+02 
94.432   7.02000000e+02 
94.396   6.97000000e+02 
94.360   7.14000000e+02 
94.324   7.48000000e+02 
94.288   7.89000000e+02 
94.252   7.50000000e+02 
94.216   7.84000000e+02 
94.180   8.62000000e+02 
94.145   8.83000000e+02 
94.109   9.47000000e+02 
94.073   1.00800000e+03 
94.037   9.61000000e+02 
94.001   9.53000000e+02 
93.965   1.06300000e+03 
93.929   1.07400000e+03 
93.893   1.11000000e+03 
93.857   1.19900000e+03 
93.821   1.21900000e+03 
93.785   1.26700000e+03 
93.749   1.30800000e+03 
93.713   1.31400000e+03 
93.677   1.38700000e+03 
93.641   1.39900000e+03 
93.605   1.41600000e+03 
93.570   1.42300000e+03 
93.534   1.36800000e+03 
93.498   1.46100000e+03 
93.462   1.35900000e+03 
93.426   1.32300000e+03 
93.390   1.27200000e+03 
93.354   1.21000000e+03 
93.318   1.12300000e+03 
93.282   1.04700000e+03 
93.246   1.05500000e+03 
93.210   9.45000000e+02 
93.174   9.02000000e+02 
93.138   8.14000000e+02 
93.102   7.32000000e+02 
93.066   6.70000000e+02 
93.030   6.36000000e+02 
92.995   5.70000000e+02 
92.959   4.68000000e+02 
92.923   5.02000000e+02 
92.887   4.72000000e+02 
92.851   4.33000000e+02 
92.815   4.31000000e+02 
92.779   4.03000000e+02 
92.743   3.75000000e+02 
92.707   3.88000000e+02 
92.671   3.40000000e+02 
92.635   3.45000000e+02 
92.599   3.29000000e+02 
92.563   3.18000000e+02 
92.527   3.29000000e+02 
92.491   3.38000000e+02 
92.455   2.98000000e+02 
92.420   3.11000000e+02 
92.384   2.72000000e+02 
92.348   2.38000000e+02 
92.312   2.52000000e+02 
92.276   2.43000000e+02 
92.240   2.50000000e+02 
92.204   2.32000000e+02 
92.168   2.25000000e+02 
92.132   2.25000000e+02 
92.096   2.52000000e+02 
92.060   2.13000000e+02 
92.024   2.05000000e+02 
91.988   2.02000000e+02 
91.952   1.93000000e+02 
91.916   1.97000000e+02 
91.880   2.09000000e+02 
91.845   1.78000000e+02 
91.809   2.16000000e+02 
91.773   2.49000000e+02 
91.737   1.84000000e+02 
91.701   1.96000000e+02 
91.665   2.12000000e+02 
91.629   2.12000000e+02 
91.593   2.24000000e+02 
91.557   2.39000000e+02 
91.521   2.38000000e+02 
91.485   2.37000000e+02 
91.449   2.48000000e+02 
91.413   2.32000000e+02 
91.377   2.19000000e+02 
91.341   2.42000000e+02 
91.305   2.41000000e+02 
91.270   2.51000000e+02 
91.234   2.75000000e+02 
91.198   2.85000000e+02 
91.162   2.73000000e+02 
91.126   2.99000000e+02 
91.090   2.96000000e+02 
91.054   3.38000000e+02 
91.018   3.09000000e+02 
90.982   3.38000000e+02 
90.946   3.43000000e+02 
90.910   3.80000000e+02 
90.874   3.68000000e+02 
90.838   3.72000000e+02 
90.802   4.21000000e+02 
90.766   4.07000000e+02 
90.730   4.46000000e+02 
90.695   4.67000000e+02 
90.659   4.76000000e+02 
90.623   5.14000000e+02 
90.587   5.09000000e+02 
90.551   5.47000000e+02 
90.515   6.46000000e+02 
90.479   6.33000000e+02 
90.443   6.22000000e+02 
90.407   6.86000000e+02 
90.371   6.78000000e+02 
90.335   6.92000000e+02 
90.299   7.32000000e+02 
90.263   7.55000000e+02 
90.227   8.04000000e+02 
90.191   8.34000000e+02 
90.155   9.16000000e+02 
90.120   8.52000000e+02 
90.084   8.69000000e+02 
90.048   8.65000000e+02 
90.012   9.06000000e+02 
89.976   9.30000000e+02 
89.940   9.64000000e+02 
89.904   9.29000000e+02 
89.868   8.33000000e+02 
89.832   8.70000000e+02 
89.796   8.15000000e+02 
89.760   9.01000000e+02 
89.724   8.03000000e+02 
89.688   7.17000000e+02 
89.652   7.16000000e+02 
89.616   6.80000000e+02 
89.580   6.19000000e+02 
89.545   5.34000000e+02 
89.509   4.57000000e+02 
89.473   4.73000000e+02 
89.437   3.95000000e+02 
89.401   3.60000000e+02 
89.365   3.11000000e+02 
89.329   2.72000000e+02 
89.293   2.85000000e+02 
89.257   2.34000000e+02 
89.221   2.10000000e+02 
89.185   2.01000000e+02 
89.149   1.65000000e+02 
89.113   1.74000000e+02 
89.077   1.62000000e+02 
89.041   1.60000000e+02 
89.005   1.30000000e+02 
88.970   1.48000000e+02 
88.934   1.14000000e+02 
88.898   1.08000000e+02 
88.862   1.31000000e+02 
88.826   1.23000000e+02 
88.790   9.50000000e+01 
88.754   1.11000000e+02 
88.718   8.90000000e+01 
88.682   9.80000000e+01 
88.646   8.20000000e+01 
88.610   8.60000000e+01 
88.574   9.10000000e+01 
88.538   8.90000000e+01 
88.502   9.00000000e+01 
88.466   8.00000000e+01 
88.430   6.90000000e+01 
88.395   8.70000000e+01 
88.359   7.40000000e+01 
88.323   9.70000000e+01 
88.287   8.90000000e+01 
88.251   7.30000000e+01 
88.215   9.20000000e+01 
88.179   7.60000000e+01 
88.143   9.10000000e+01 
88.107   6.50000000e+01 
88.071   9.20000000e+01 
88.035   7.90000000e+01 
87.999   7.60000000e+01 
87.963   6.50000000e+01 
87.927   6.90000000e+01 
87.891   6.60000000e+01 
87.855   8.30000000e+01 
87.820   7.70000000e+01 
87.784   7.60000000e+01 
87.748   6.60000000e+01 
87.712   6.70000000e+01 
87.676   7.20000000e+01 
87.640   9.20000000e+01 
87.604   7.80000000e+01 
87.568   8.40000000e+01 
87.532   9.00000000e+01 
87.496   9.60000000e+01 
87.460   8.20000000e+01 
87.424   7.30000000e+01 
87.388   6.80000000e+01 
87.352   8.80000000e+01 
87.316   6.60000000e+01 
87.280   7.30000000e+01 
87.245   7.70000000e+01 
87.209   7.70000000e+01 
87.173   7.30000000e+01 
87.137   7.00000000e+01 
87.101   8.30000000e+01 
87.065   7.10000000e+01 
87.029   8.60000000e+01 
86.993   7.00000000e+01 
86.957   7.00000000e+01 
86.921   8.00000000e+01 
86.885   7.10000000e+01 
86.849   7.60000000e+01 
86.813   7.80000000e+01 
86.777   7.90000000e+01 
86.741   8.20000000e+01 
86.705   7.80000000e+01 
86.670   8.40000000e+01 
86.634   6.50000000e+01 
86.598   9.20000000e+01 
86.562   7.30000000e+01 
86.526   9.60000000e+01 
86.490   8.20000000e+01 
86.454   7.10000000e+01 
86.418   7.50000000e+01 
86.382   8.50000000e+01 
86.346   7.80000000e+01 
86.310   7.50000000e+01 
86.274   8.60000000e+01 
86.238   7.80000000e+01 
86.202   7.80000000e+01 
86.166   8.30000000e+01 
86.130   7.20000000e+01 
86.095   8.80000000e+01 
86.059   7.70000000e+01 
86.023   7.60000000e+01 

