EXPERIMENT FILE
Version = 2

[ Experiment Parameters ]
Experiment Description= <none> 
Number_of_Regions_in_Experiment= 1 

Original_File_name= C:\alexesca\data\0827_600W.xps 
Instrument= HP ESCA West
Date= 08-27-2012
Time=  15:30:21

[ Layer Parameters ]
Layer_Type= XPS

[ Region 1 Parameters ]
Region_Description = Au Dithered Scan Test              
BEcenter(eV) = 91.000000
BEwidth(eV) = 10.000000
BEstep(eV) = 0.035937
Dwell_Time(sec) = 1.000000
N_o_scans = 1  
N_o_Channels = 278  
Scan_mode = 0  (DITHERED)

[ L= 1 R= 1 ]
BEcenter= 91.000  
BEwidth= -9.955  
Excitation= 1486.600
Time_p_channel= 256.000 
Size= 278
95.977   1.90000000e+01 
95.941   1.00000000e+01 
95.905   1.60000000e+01 
95.870   1.10000000e+01 
95.834   1.80000000e+01 
95.798   2.40000000e+01 
95.762   1.50000000e+01 
95.726   1.30000000e+01 
95.690   2.10000000e+01 
95.654   1.60000000e+01 
95.618   1.80000000e+01 
95.582   1.20000000e+01 
95.546   2.10000000e+01 
95.510   1.50000000e+01 
95.474   2.30000000e+01 
95.438   1.50000000e+01 
95.402   1.70000000e+01 
95.366   1.80000000e+01 
95.330   2.50000000e+01 
95.295   3.00000000e+01 
95.259   2.50000000e+01 
95.223   2.80000000e+01 
95.187   1.70000000e+01 
95.151   2.30000000e+01 
95.115   2.40000000e+01 
95.079   3.10000000e+01 
95.043   3.20000000e+01 
95.007   1.60000000e+01 
94.971   3.80000000e+01 
94.935   3.50000000e+01 
94.899   3.10000000e+01 
94.863   3.40000000e+01 
94.827   3.70000000e+01 
94.791   3.20000000e+01 
94.755   3.20000000e+01 
94.720   3.30000000e+01 
94.684   2.60000000e+01 
94.648   4.10000000e+01 
94.612   4.60000000e+01 
94.576   3.20000000e+01 
94.540   3.40000000e+01 
94.504   3.30000000e+01 
94.468   3.90000000e+01 
94.432   4.00000000e+01 
94.396   3.70000000e+01 
94.360   2.90000000e+01 
94.324   3.90000000e+01 
94.288   3.80000000e+01 
94.252   3.20000000e+01 
94.216   2.80000000e+01 
94.180   3.60000000e+01 
94.145   2.80000000e+01 
94.109   2.00000000e+01 
94.073   3.10000000e+01 
94.037   3.00000000e+01 
94.001   2.80000000e+01 
93.965   1.80000000e+01 
93.929   2.70000000e+01 
93.893   3.10000000e+01 
93.857   1.90000000e+01 
93.821   2.50000000e+01 
93.785   1.50000000e+01 
93.749   3.20000000e+01 
93.713   2.00000000e+01 
93.677   2.40000000e+01 
93.641   2.10000000e+01 
93.605   2.10000000e+01 
93.570   1.70000000e+01 
93.534   2.40000000e+01 
93.498   1.60000000e+01 
93.462   1.70000000e+01 
93.426   1.80000000e+01 
93.390   2.00000000e+01 
93.354   1.30000000e+01 
93.318   2.20000000e+01 
93.282   1.10000000e+01 
93.246   5.00000000e+00 
93.210   1.80000000e+01 
93.174   1.00000000e+01 
93.138   1.20000000e+01 
93.102   9.00000000e+00 
93.066   1.30000000e+01 
93.030   6.00000000e+00 
92.995   1.00000000e+01 
92.959   7.00000000e+00 
92.923   5.00000000e+00 
92.887   1.40000000e+01 
92.851   9.00000000e+00 
92.815   6.00000000e+00 
92.779   9.00000000e+00 
92.743   6.00000000e+00 
92.707   1.00000000e+01 
92.671   8.00000000e+00 
92.635   9.00000000e+00 
92.599   1.90000000e+01 
92.563   6.00000000e+00 
92.527   1.80000000e+01 
92.491   1.70000000e+01 
92.455   1.40000000e+01 
92.420   1.60000000e+01 
92.384   1.50000000e+01 
92.348   1.00000000e+01 
92.312   1.60000000e+01 
92.276   1.60000000e+01 
92.240   1.20000000e+01 
92.204   2.20000000e+01 
92.168   1.20000000e+01 
92.132   1.10000000e+01 
92.096   2.10000000e+01 
92.060   1.90000000e+01 
92.024   1.60000000e+01 
91.988   1.70000000e+01 
91.952   2.40000000e+01 
91.916   1.70000000e+01 
91.880   1.40000000e+01 
91.845   2.00000000e+01 
91.809   2.40000000e+01 
91.773   2.90000000e+01 
91.737   1.60000000e+01 
91.701   2.80000000e+01 
91.665   1.90000000e+01 
91.629   2.60000000e+01 
91.593   2.00000000e+01 
91.557   2.60000000e+01 
91.521   3.50000000e+01 
91.485   4.00000000e+01 
91.449   2.80000000e+01 
91.413   2.90000000e+01 
91.377   3.60000000e+01 
91.341   3.10000000e+01 
91.305   2.40000000e+01 
91.270   2.40000000e+01 
91.234   3.20000000e+01 
91.198   3.90000000e+01 
91.162   4.30000000e+01 
91.126   3.60000000e+01 
91.090   3.50000000e+01 
91.054   3.60000000e+01 
91.018   3.50000000e+01 
90.982   4.20000000e+01 
90.946   4.70000000e+01 
90.910   3.40000000e+01 
90.874   5.30000000e+01 
90.838   4.10000000e+01 
90.802   4.80000000e+01 
90.766   4.40000000e+01 
90.730   3.80000000e+01 
90.695   3.50000000e+01 
90.659   4.20000000e+01 
90.623   3.50000000e+01 
90.587   4.00000000e+01 
90.551   4.40000000e+01 
90.515   2.80000000e+01 
90.479   2.70000000e+01 
90.443   2.80000000e+01 
90.407   3.80000000e+01 
90.371   2.50000000e+01 
90.335   2.90000000e+01 
90.299   2.80000000e+01 
90.263   2.70000000e+01 
90.227   2.50000000e+01 
90.191   3.40000000e+01 
90.155   2.40000000e+01 
90.120   1.60000000e+01 
90.084   2.00000000e+01 
90.048   2.70000000e+01 
90.012   1.90000000e+01 
89.976   2.10000000e+01 
89.940   2.30000000e+01 
89.904   2.50000000e+01 
89.868   1.60000000e+01 
89.832   1.80000000e+01 
89.796   1.50000000e+01 
89.760   8.00000000e+00 
89.724   1.50000000e+01 
89.688   1.10000000e+01 
89.652   1.50000000e+01 
89.616   7.00000000e+00 
89.580   1.20000000e+01 
89.545   1.30000000e+01 
89.509   1.10000000e+01 
89.473   8.00000000e+00 
89.437   1.00000000e+01 
89.401   7.00000000e+00 
89.365   8.00000000e+00 
89.329   8.00000000e+00 
89.293   5.00000000e+00 
89.257   9.00000000e+00 
89.221   8.00000000e+00 
89.185   5.00000000e+00 
89.149   1.00000000e+01 
89.113   4.00000000e+00 
89.077   9.00000000e+00 
89.041   4.00000000e+00 
89.005   1.00000000e+01 
88.970   3.00000000e+00 
88.934   7.00000000e+00 
88.898   6.00000000e+00 
88.862   6.00000000e+00 
88.826   6.00000000e+00 
88.790   6.00000000e+00 
88.754   7.00000000e+00 
88.718   7.00000000e+00 
88.682   2.00000000e+00 
88.646   6.00000000e+00 
88.610   3.00000000e+00 
88.574   3.00000000e+00 
88.538   9.00000000e+00 
88.502   6.00000000e+00 
88.466   6.00000000e+00 
88.430   6.00000000e+00 
88.395   1.10000000e+01 
88.359   4.00000000e+00 
88.323   3.00000000e+00 
88.287   5.00000000e+00 
88.251   6.00000000e+00 
88.215   5.00000000e+00 
88.179   5.00000000e+00 
88.143   3.00000000e+00 
88.107   4.00000000e+00 
88.071   4.00000000e+00 
88.035   4.00000000e+00 
87.999   4.00000000e+00 
87.963   8.00000000e+00 
87.927   2.00000000e+00 
87.891   8.00000000e+00 
87.855   6.00000000e+00 
87.820   4.00000000e+00 
87.784   2.00000000e+00 
87.748   7.00000000e+00 
87.712   5.00000000e+00 
87.676   2.00000000e+00 
87.640   5.00000000e+00 
87.604   6.00000000e+00 
87.568   4.00000000e+00 
87.532   9.00000000e+00 
87.496   5.00000000e+00 
87.460   3.00000000e+00 
87.424   1.00000000e+00 
87.388   5.00000000e+00 
87.352   3.00000000e+00 
87.316   5.00000000e+00 
87.280   4.00000000e+00 
87.245   5.00000000e+00 
87.209   6.00000000e+00 
87.173   1.00000000e+00 
87.137   1.00000000e+01 
87.101   3.00000000e+00 
87.065   3.00000000e+00 
87.029   6.00000000e+00 
86.993   4.00000000e+00 
86.957   3.00000000e+00 
86.921   3.00000000e+00 
86.885   5.00000000e+00 
86.849   3.00000000e+00 
86.813   6.00000000e+00 
86.777   6.00000000e+00 
86.741   8.00000000e+00 
86.705   3.00000000e+00 
86.670   7.00000000e+00 
86.634   6.00000000e+00 
86.598   7.00000000e+00 
86.562   2.00000000e+00 
86.526   6.00000000e+00 
86.490   1.00000000e+00 
86.454   1.10000000e+01 
86.418   5.00000000e+00 
86.382   1.00000000e+01 
86.346   3.00000000e+00 
86.310   2.00000000e+00 
86.274   5.00000000e+00 
86.238   9.00000000e+00 
86.202   3.00000000e+00 
86.166   4.00000000e+00 
86.130   4.00000000e+00 
86.095   1.10000000e+01 
86.059   7.00000000e+00 
86.023   2.00000000e+00 

