EXPERIMENT FILE
Version = 2

[ Experiment Parameters ]
Experiment Description= <none> 
Number_of_Regions_in_Experiment= 1 

Original_File_name= C:\alexesca\data\0827_800W.xps 
Instrument= HP ESCA West
Date= 08-27-2012
Time=  15:50:37

[ Layer Parameters ]
Layer_Type= XPS

[ Region 1 Parameters ]
Region_Description = Au Dithered Scan Test              
BEcenter(eV) = 91.000000
BEwidth(eV) = 10.000000
BEstep(eV) = 0.035937
Dwell_Time(sec) = 1.000000
N_o_scans = 1  
N_o_Channels = 278  
Scan_mode = 0  (DITHERED)

[ L= 1 R= 1 ]
BEcenter= 91.000  
BEwidth= -9.955  
Excitation= 1486.600
Time_p_channel= 256.000 
Size= 278
95.977   6.00000000e+00 
95.941   1.70000000e+01 
95.905   1.80000000e+01 
95.870   1.90000000e+01 
95.834   1.20000000e+01 
95.798   1.10000000e+01 
95.762   1.60000000e+01 
95.726   1.30000000e+01 
95.690   1.40000000e+01 
95.654   1.60000000e+01 
95.618   2.10000000e+01 
95.582   2.10000000e+01 
95.546   1.80000000e+01 
95.510   1.30000000e+01 
95.474   1.70000000e+01 
95.438   1.70000000e+01 
95.402   1.80000000e+01 
95.366   1.30000000e+01 
95.330   1.50000000e+01 
95.295   2.30000000e+01 
95.259   2.30000000e+01 
95.223   1.90000000e+01 
95.187   1.90000000e+01 
95.151   2.80000000e+01 
95.115   3.60000000e+01 
95.079   2.70000000e+01 
95.043   3.00000000e+01 
95.007   2.90000000e+01 
94.971   2.80000000e+01 
94.935   3.60000000e+01 
94.899   2.30000000e+01 
94.863   3.30000000e+01 
94.827   3.60000000e+01 
94.791   2.60000000e+01 
94.755   2.90000000e+01 
94.720   3.50000000e+01 
94.684   3.30000000e+01 
94.648   4.00000000e+01 
94.612   2.80000000e+01 
94.576   3.10000000e+01 
94.540   3.10000000e+01 
94.504   3.20000000e+01 
94.468   3.80000000e+01 
94.432   3.30000000e+01 
94.396   4.00000000e+01 
94.360   3.60000000e+01 
94.324   3.80000000e+01 
94.288   3.30000000e+01 
94.252   4.10000000e+01 
94.216   2.70000000e+01 
94.180   3.00000000e+01 
94.145   4.10000000e+01 
94.109   2.70000000e+01 
94.073   3.40000000e+01 
94.037   3.10000000e+01 
94.001   2.80000000e+01 
93.965   3.60000000e+01 
93.929   3.50000000e+01 
93.893   2.40000000e+01 
93.857   3.50000000e+01 
93.821   2.60000000e+01 
93.785   2.60000000e+01 
93.749   1.80000000e+01 
93.713   2.40000000e+01 
93.677   1.70000000e+01 
93.641   1.10000000e+01 
93.605   3.40000000e+01 
93.570   2.10000000e+01 
93.534   2.50000000e+01 
93.498   2.00000000e+01 
93.462   2.00000000e+01 
93.426   2.10000000e+01 
93.390   1.90000000e+01 
93.354   1.70000000e+01 
93.318   1.10000000e+01 
93.282   1.30000000e+01 
93.246   1.70000000e+01 
93.210   1.30000000e+01 
93.174   1.40000000e+01 
93.138   1.00000000e+01 
93.102   1.60000000e+01 
93.066   7.00000000e+00 
93.030   1.20000000e+01 
92.995   1.70000000e+01 
92.959   7.00000000e+00 
92.923   1.10000000e+01 
92.887   1.60000000e+01 
92.851   1.30000000e+01 
92.815   1.40000000e+01 
92.779   1.20000000e+01 
92.743   1.40000000e+01 
92.707   5.00000000e+00 
92.671   1.40000000e+01 
92.635   1.30000000e+01 
92.599   5.00000000e+00 
92.563   9.00000000e+00 
92.527   1.10000000e+01 
92.491   1.20000000e+01 
92.455   1.50000000e+01 
92.420   1.70000000e+01 
92.384   1.70000000e+01 
92.348   1.60000000e+01 
92.312   8.00000000e+00 
92.276   1.30000000e+01 
92.240   1.50000000e+01 
92.204   1.40000000e+01 
92.168   1.30000000e+01 
92.132   1.30000000e+01 
92.096   9.00000000e+00 
92.060   1.40000000e+01 
92.024   1.10000000e+01 
91.988   2.10000000e+01 
91.952   1.50000000e+01 
91.916   1.90000000e+01 
91.880   2.10000000e+01 
91.845   1.80000000e+01 
91.809   2.70000000e+01 
91.773   2.20000000e+01 
91.737   1.30000000e+01 
91.701   1.70000000e+01 
91.665   1.80000000e+01 
91.629   1.60000000e+01 
91.593   2.50000000e+01 
91.557   2.50000000e+01 
91.521   2.50000000e+01 
91.485   2.70000000e+01 
91.449   2.70000000e+01 
91.413   3.30000000e+01 
91.377   2.40000000e+01 
91.341   4.00000000e+01 
91.305   3.00000000e+01 
91.270   3.90000000e+01 
91.234   3.60000000e+01 
91.198   3.40000000e+01 
91.162   3.30000000e+01 
91.126   3.20000000e+01 
91.090   4.10000000e+01 
91.054   4.10000000e+01 
91.018   2.80000000e+01 
90.982   4.00000000e+01 
90.946   4.20000000e+01 
90.910   3.50000000e+01 
90.874   4.00000000e+01 
90.838   5.10000000e+01 
90.802   4.20000000e+01 
90.766   3.20000000e+01 
90.730   2.60000000e+01 
90.695   3.50000000e+01 
90.659   4.20000000e+01 
90.623   3.50000000e+01 
90.587   3.20000000e+01 
90.551   3.90000000e+01 
90.515   4.20000000e+01 
90.479   3.30000000e+01 
90.443   2.60000000e+01 
90.407   4.50000000e+01 
90.371   2.90000000e+01 
90.335   3.30000000e+01 
90.299   3.20000000e+01 
90.263   2.80000000e+01 
90.227   3.00000000e+01 
90.191   2.90000000e+01 
90.155   2.60000000e+01 
90.120   2.00000000e+01 
90.084   2.00000000e+01 
90.048   3.10000000e+01 
90.012   3.50000000e+01 
89.976   2.20000000e+01 
89.940   2.80000000e+01 
89.904   1.90000000e+01 
89.868   2.40000000e+01 
89.832   1.10000000e+01 
89.796   2.00000000e+01 
89.760   2.00000000e+01 
89.724   1.70000000e+01 
89.688   1.70000000e+01 
89.652   7.00000000e+00 
89.616   1.70000000e+01 
89.580   1.30000000e+01 
89.545   9.00000000e+00 
89.509   1.30000000e+01 
89.473   1.10000000e+01 
89.437   1.50000000e+01 
89.401   5.00000000e+00 
89.365   8.00000000e+00 
89.329   7.00000000e+00 
89.293   6.00000000e+00 
89.257   5.00000000e+00 
89.221   7.00000000e+00 
89.185   9.00000000e+00 
89.149   1.10000000e+01 
89.113   5.00000000e+00 
89.077   3.00000000e+00 
89.041   5.00000000e+00 
89.005   5.00000000e+00 
88.970   4.00000000e+00 
88.934   3.00000000e+00 
88.898   1.10000000e+01 
88.862   5.00000000e+00 
88.826   8.00000000e+00 
88.790   1.10000000e+01 
88.754   2.00000000e+00 
88.718   6.00000000e+00 
88.682   9.00000000e+00 
88.646   2.00000000e+00 
88.610   4.00000000e+00 
88.574   7.00000000e+00 
88.538   1.10000000e+01 
88.502   5.00000000e+00 
88.466   6.00000000e+00 
88.430   7.00000000e+00 
88.395   5.00000000e+00 
88.359   3.00000000e+00 
88.323   2.00000000e+00 
88.287   2.00000000e+00 
88.251   1.00000000e+01 
88.215   3.00000000e+00 
88.179   7.00000000e+00 
88.143   7.00000000e+00 
88.107   5.00000000e+00 
88.071   6.00000000e+00 
88.035   3.00000000e+00 
87.999   3.00000000e+00 
87.963   4.00000000e+00 
87.927   3.00000000e+00 
87.891   6.00000000e+00 
87.855   3.00000000e+00 
87.820   3.00000000e+00 
87.784   6.00000000e+00 
87.748   3.00000000e+00 
87.712   5.00000000e+00 
87.676   6.00000000e+00 
87.640   5.00000000e+00 
87.604   2.00000000e+00 
87.568   3.00000000e+00 
87.532   4.00000000e+00 
87.496   6.00000000e+00 
87.460   3.00000000e+00 
87.424   5.00000000e+00 
87.388   3.00000000e+00 
87.352   5.00000000e+00 
87.316   5.00000000e+00 
87.280   5.00000000e+00 
87.245   6.00000000e+00 
87.209   4.00000000e+00 
87.173   3.00000000e+00 
87.137   4.00000000e+00 
87.101   2.00000000e+00 
87.065   5.00000000e+00 
87.029   3.00000000e+00 
86.993   8.00000000e+00 
86.957   3.00000000e+00 
86.921   5.00000000e+00 
86.885   8.00000000e+00 
86.849   6.00000000e+00 
86.813   8.00000000e+00 
86.777   1.50000000e+01 
86.741   4.00000000e+00 
86.705   2.00000000e+00 
86.670   6.00000000e+00 
86.634   6.00000000e+00 
86.598   1.00000000e+01 
86.562   1.00000000e+01 
86.526   8.00000000e+00 
86.490   3.00000000e+00 
86.454   4.00000000e+00 
86.418   5.00000000e+00 
86.382   3.00000000e+00 
86.346   0.00000000e+00 
86.310   4.00000000e+00 
86.274   4.00000000e+00 
86.238   5.00000000e+00 
86.202   6.00000000e+00 
86.166   3.00000000e+00 
86.130   6.00000000e+00 
86.095   4.00000000e+00 
86.059   4.00000000e+00 
86.023   5.00000000e+00 

