EXPERIMENT FILE
Version = 2

[ Experiment Parameters ]
Experiment Description= <none> 
Number_of_Regions_in_Experiment= 1 

Original_File_name= C:\alexesca\data\0907_400W_30Deg_preamp covers ON.xps 
Instrument= HP ESCA West
Date= 09-07-2012
Time=  14:11:34

[ Layer Parameters ]
Layer_Type= XPS

[ Region 1 Parameters ]
Region_Description = Au Dithered Scan Test              
BEcenter(eV) = 91.000000
BEwidth(eV) = 10.000000
BEstep(eV) = 0.035938
Dwell_Time(sec) = 1.000000
N_o_scans = 1  
N_o_Channels = 278  
Scan_mode = 0  (DITHERED)

[ L= 1 R= 1 ]
BEcenter= 91.000  
BEwidth= -9.955  
Excitation= 1486.600
Time_p_channel= 256.000 
Size= 278
95.977   8.20000000e+01 
95.941   9.80000000e+01 
95.905   1.00000000e+02 
95.870   8.70000000e+01 
95.834   1.03000000e+02 
95.798   1.08000000e+02 
95.762   1.16000000e+02 
95.726   1.19000000e+02 
95.690   1.19000000e+02 
95.654   1.29000000e+02 
95.618   1.58000000e+02 
95.582   1.28000000e+02 
95.546   1.28000000e+02 
95.510   1.49000000e+02 
95.474   1.61000000e+02 
95.438   1.61000000e+02 
95.402   1.70000000e+02 
95.366   1.79000000e+02 
95.330   1.82000000e+02 
95.295   1.75000000e+02 
95.259   1.93000000e+02 
95.223   1.91000000e+02 
95.187   2.07000000e+02 
95.151   2.03000000e+02 
95.115   1.83000000e+02 
95.079   2.22000000e+02 
95.043   2.11000000e+02 
95.007   2.38000000e+02 
94.971   2.65000000e+02 
94.935   2.24000000e+02 
94.899   2.53000000e+02 
94.863   2.45000000e+02 
94.827   2.56000000e+02 
94.791   2.85000000e+02 
94.755   2.70000000e+02 
94.720   2.62000000e+02 
94.684   2.33000000e+02 
94.648   2.84000000e+02 
94.612   2.99000000e+02 
94.576   2.66000000e+02 
94.540   2.72000000e+02 
94.504   2.82000000e+02 
94.468   2.71000000e+02 
94.432   2.73000000e+02 
94.396   2.71000000e+02 
94.360   2.83000000e+02 
94.324   2.80000000e+02 
94.288   2.77000000e+02 
94.252   2.48000000e+02 
94.216   2.72000000e+02 
94.180   2.70000000e+02 
94.145   2.45000000e+02 
94.109   2.26000000e+02 
94.073   2.38000000e+02 
94.037   2.05000000e+02 
94.001   2.08000000e+02 
93.965   2.13000000e+02 
93.929   1.98000000e+02 
93.893   1.69000000e+02 
93.857   1.95000000e+02 
93.821   1.77000000e+02 
93.785   1.68000000e+02 
93.749   1.48000000e+02 
93.713   1.66000000e+02 
93.677   1.37000000e+02 
93.641   1.37000000e+02 
93.605   1.42000000e+02 
93.570   1.22000000e+02 
93.534   9.80000000e+01 
93.498   1.12000000e+02 
93.462   1.12000000e+02 
93.426   9.60000000e+01 
93.390   7.70000000e+01 
93.354   8.40000000e+01 
93.318   1.08000000e+02 
93.282   8.90000000e+01 
93.246   9.80000000e+01 
93.210   9.20000000e+01 
93.174   8.40000000e+01 
93.138   8.10000000e+01 
93.102   7.50000000e+01 
93.066   7.70000000e+01 
93.030   5.50000000e+01 
92.995   7.10000000e+01 
92.959   7.40000000e+01 
92.923   6.10000000e+01 
92.887   7.00000000e+01 
92.851   9.70000000e+01 
92.815   7.80000000e+01 
92.779   8.30000000e+01 
92.743   7.40000000e+01 
92.707   6.80000000e+01 
92.671   7.80000000e+01 
92.635   7.40000000e+01 
92.599   8.30000000e+01 
92.563   8.30000000e+01 
92.527   1.00000000e+02 
92.491   8.20000000e+01 
92.455   7.50000000e+01 
92.420   9.30000000e+01 
92.384   8.00000000e+01 
92.348   7.90000000e+01 
92.312   9.10000000e+01 
92.276   9.40000000e+01 
92.240   1.01000000e+02 
92.204   9.70000000e+01 
92.168   1.03000000e+02 
92.132   1.01000000e+02 
92.096   1.03000000e+02 
92.060   1.28000000e+02 
92.024   9.70000000e+01 
91.988   1.29000000e+02 
91.952   1.28000000e+02 
91.916   1.17000000e+02 
91.880   1.35000000e+02 
91.845   1.43000000e+02 
91.809   1.59000000e+02 
91.773   1.71000000e+02 
91.737   1.81000000e+02 
91.701   1.88000000e+02 
91.665   1.91000000e+02 
91.629   2.02000000e+02 
91.593   2.07000000e+02 
91.557   2.27000000e+02 
91.521   2.21000000e+02 
91.485   2.60000000e+02 
91.449   2.46000000e+02 
91.413   2.50000000e+02 
91.377   2.48000000e+02 
91.341   2.80000000e+02 
91.305   2.89000000e+02 
91.270   2.76000000e+02 
91.234   2.93000000e+02 
91.198   3.07000000e+02 
91.162   3.04000000e+02 
91.126   3.09000000e+02 
91.090   2.95000000e+02 
91.054   3.13000000e+02 
91.018   3.16000000e+02 
90.982   3.00000000e+02 
90.946   3.36000000e+02 
90.910   3.50000000e+02 
90.874   2.89000000e+02 
90.838   3.30000000e+02 
90.802   3.28000000e+02 
90.766   3.12000000e+02 
90.730   3.05000000e+02 
90.695   3.05000000e+02 
90.659   3.08000000e+02 
90.623   2.74000000e+02 
90.587   2.80000000e+02 
90.551   2.82000000e+02 
90.515   2.44000000e+02 
90.479   2.71000000e+02 
90.443   2.64000000e+02 
90.407   2.03000000e+02 
90.371   2.58000000e+02 
90.335   2.20000000e+02 
90.299   2.09000000e+02 
90.263   1.97000000e+02 
90.227   1.88000000e+02 
90.191   1.71000000e+02 
90.155   1.69000000e+02 
90.120   1.56000000e+02 
90.084   1.53000000e+02 
90.048   1.35000000e+02 
90.012   1.13000000e+02 
89.976   1.14000000e+02 
89.940   1.17000000e+02 
89.904   1.13000000e+02 
89.868   9.90000000e+01 
89.832   8.30000000e+01 
89.796   8.50000000e+01 
89.760   5.60000000e+01 
89.724   7.90000000e+01 
89.688   6.60000000e+01 
89.652   5.50000000e+01 
89.616   6.00000000e+01 
89.580   5.10000000e+01 
89.545   4.80000000e+01 
89.509   5.30000000e+01 
89.473   3.60000000e+01 
89.437   5.70000000e+01 
89.401   3.20000000e+01 
89.365   4.60000000e+01 
89.329   4.80000000e+01 
89.293   3.70000000e+01 
89.257   3.40000000e+01 
89.221   4.00000000e+01 
89.185   3.30000000e+01 
89.149   4.50000000e+01 
89.113   2.70000000e+01 
89.077   3.70000000e+01 
89.041   3.70000000e+01 
89.005   2.90000000e+01 
88.970   3.30000000e+01 
88.934   3.20000000e+01 
88.898   2.20000000e+01 
88.862   3.80000000e+01 
88.826   4.20000000e+01 
88.790   3.50000000e+01 
88.754   3.80000000e+01 
88.718   2.70000000e+01 
88.682   2.30000000e+01 
88.646   3.30000000e+01 
88.610   2.60000000e+01 
88.574   3.30000000e+01 
88.538   3.70000000e+01 
88.502   2.40000000e+01 
88.466   4.40000000e+01 
88.430   2.20000000e+01 
88.395   2.70000000e+01 
88.359   2.20000000e+01 
88.323   2.90000000e+01 
88.287   2.60000000e+01 
88.251   3.70000000e+01 
88.215   2.30000000e+01 
88.179   2.40000000e+01 
88.143   2.50000000e+01 
88.107   2.30000000e+01 
88.071   4.00000000e+01 
88.035   3.80000000e+01 
87.999   2.70000000e+01 
87.963   3.00000000e+01 
87.927   2.10000000e+01 
87.891   2.50000000e+01 
87.855   2.10000000e+01 
87.820   3.00000000e+01 
87.784   2.90000000e+01 
87.748   2.10000000e+01 
87.712   3.10000000e+01 
87.676   2.90000000e+01 
87.640   3.10000000e+01 
87.604   2.20000000e+01 
87.568   2.50000000e+01 
87.532   2.50000000e+01 
87.496   3.00000000e+01 
87.460   2.00000000e+01 
87.424   2.90000000e+01 
87.388   2.10000000e+01 
87.352   3.40000000e+01 
87.316   2.80000000e+01 
87.280   3.00000000e+01 
87.245   3.50000000e+01 
87.209   2.50000000e+01 
87.173   2.10000000e+01 
87.137   2.70000000e+01 
87.101   2.70000000e+01 
87.065   3.30000000e+01 
87.029   1.80000000e+01 
86.993   1.90000000e+01 
86.957   2.40000000e+01 
86.921   2.40000000e+01 
86.885   2.90000000e+01 
86.849   2.40000000e+01 
86.813   2.90000000e+01 
86.777   3.80000000e+01 
86.741   2.80000000e+01 
86.705   2.40000000e+01 
86.670   2.00000000e+01 
86.634   3.10000000e+01 
86.598   2.40000000e+01 
86.562   3.40000000e+01 
86.526   2.10000000e+01 
86.490   2.20000000e+01 
86.454   2.50000000e+01 
86.418   2.50000000e+01 
86.382   2.70000000e+01 
86.346   2.20000000e+01 
86.310   2.40000000e+01 
86.274   1.70000000e+01 
86.238   2.90000000e+01 
86.202   2.20000000e+01 
86.166   3.50000000e+01 
86.130   2.10000000e+01 
86.095   2.50000000e+01 
86.059   2.40000000e+01 
86.023   2.30000000e+01 

