EXPERIMENT FILE
Version = 2

[ Experiment Parameters ]
Experiment Description= <none> 
Number_of_Regions_in_Experiment= 1 

Original_File_name= C:\alexesca\data\0907_400W_30Deg.xps 
Instrument= HP ESCA West
Date= 09-07-2012
Time=  13:42:17

[ Layer Parameters ]
Layer_Type= XPS

[ Region 1 Parameters ]
Region_Description = Au Dithered Scan Test              
BEcenter(eV) = 91.000000
BEwidth(eV) = 10.000000
BEstep(eV) = 0.035937
Dwell_Time(sec) = 1.000000
N_o_scans = 1  
N_o_Channels = 278  
Scan_mode = 0  (DITHERED)

[ L= 1 R= 1 ]
BEcenter= 91.000  
BEwidth= -9.955  
Excitation= 1486.600
Time_p_channel= 256.000 
Size= 278
95.977   2.13000000e+02 
95.941   2.01000000e+02 
95.905   2.05000000e+02 
95.870   1.97000000e+02 
95.834   1.76000000e+02 
95.798   1.99000000e+02 
95.762   1.96000000e+02 
95.726   2.07000000e+02 
95.690   2.09000000e+02 
95.654   2.04000000e+02 
95.618   2.02000000e+02 
95.582   2.06000000e+02 
95.546   1.64000000e+02 
95.510   1.96000000e+02 
95.474   2.07000000e+02 
95.438   1.93000000e+02 
95.402   1.97000000e+02 
95.366   1.96000000e+02 
95.330   2.11000000e+02 
95.295   1.93000000e+02 
95.259   2.22000000e+02 
95.223   2.06000000e+02 
95.187   1.76000000e+02 
95.151   1.99000000e+02 
95.115   2.21000000e+02 
95.079   1.68000000e+02 
95.043   1.91000000e+02 
95.007   1.65000000e+02 
94.971   1.95000000e+02 
94.935   1.91000000e+02 
94.899   2.02000000e+02 
94.863   2.03000000e+02 
94.827   2.11000000e+02 
94.791   1.89000000e+02 
94.755   1.89000000e+02 
94.720   1.81000000e+02 
94.684   2.01000000e+02 
94.648   1.84000000e+02 
94.612   2.14000000e+02 
94.576   2.07000000e+02 
94.540   1.74000000e+02 
94.504   1.77000000e+02 
94.468   1.74000000e+02 
94.432   1.77000000e+02 
94.396   1.94000000e+02 
94.360   1.71000000e+02 
94.324   1.79000000e+02 
94.288   1.74000000e+02 
94.252   1.76000000e+02 
94.216   1.76000000e+02 
94.180   1.86000000e+02 
94.145   1.86000000e+02 
94.109   1.42000000e+02 
94.073   1.61000000e+02 
94.037   1.75000000e+02 
94.001   1.83000000e+02 
93.965   1.92000000e+02 
93.929   1.92000000e+02 
93.893   1.93000000e+02 
93.857   1.88000000e+02 
93.821   1.77000000e+02 
93.785   1.75000000e+02 
93.749   1.78000000e+02 
93.713   1.73000000e+02 
93.677   1.57000000e+02 
93.641   1.90000000e+02 
93.605   1.60000000e+02 
93.570   1.78000000e+02 
93.534   1.54000000e+02 
93.498   1.79000000e+02 
93.462   1.60000000e+02 
93.426   1.84000000e+02 
93.390   1.67000000e+02 
93.354   1.48000000e+02 
93.318   1.58000000e+02 
93.282   1.60000000e+02 
93.246   1.76000000e+02 
93.210   1.67000000e+02 
93.174   1.80000000e+02 
93.138   1.79000000e+02 
93.102   1.74000000e+02 
93.066   1.75000000e+02 
93.030   1.62000000e+02 
92.995   1.63000000e+02 
92.959   1.71000000e+02 
92.923   1.67000000e+02 
92.887   1.66000000e+02 
92.851   1.68000000e+02 
92.815   1.53000000e+02 
92.779   1.56000000e+02 
92.743   1.69000000e+02 
92.707   1.68000000e+02 
92.671   1.69000000e+02 
92.635   1.62000000e+02 
92.599   1.66000000e+02 
92.563   1.75000000e+02 
92.527   1.64000000e+02 
92.491   1.58000000e+02 
92.455   1.62000000e+02 
92.420   1.66000000e+02 
92.384   1.54000000e+02 
92.348   1.58000000e+02 
92.312   1.75000000e+02 
92.276   1.71000000e+02 
92.240   1.49000000e+02 
92.204   1.49000000e+02 
92.168   1.46000000e+02 
92.132   1.40000000e+02 
92.096   1.54000000e+02 
92.060   1.40000000e+02 
92.024   1.39000000e+02 
91.988   1.47000000e+02 
91.952   1.78000000e+02 
91.916   1.62000000e+02 
91.880   1.35000000e+02 
91.845   1.57000000e+02 
91.809   1.68000000e+02 
91.773   1.39000000e+02 
91.737   1.67000000e+02 
91.701   1.56000000e+02 
91.665   1.74000000e+02 
91.629   1.38000000e+02 
91.593   1.54000000e+02 
91.557   1.36000000e+02 
91.521   1.60000000e+02 
91.485   1.62000000e+02 
91.449   1.39000000e+02 
91.413   1.39000000e+02 
91.377   1.64000000e+02 
91.341   1.50000000e+02 
91.305   1.46000000e+02 
91.270   1.47000000e+02 
91.234   1.22000000e+02 
91.198   1.50000000e+02 
91.162   1.34000000e+02 
91.126   1.30000000e+02 
91.090   1.59000000e+02 
91.054   1.58000000e+02 
91.018   1.39000000e+02 
90.982   1.74000000e+02 
90.946   1.34000000e+02 
90.910   1.46000000e+02 
90.874   1.37000000e+02 
90.838   1.62000000e+02 
90.802   1.66000000e+02 
90.766   1.51000000e+02 
90.730   1.55000000e+02 
90.695   1.62000000e+02 
90.659   1.59000000e+02 
90.623   1.58000000e+02 
90.587   1.77000000e+02 
90.551   1.51000000e+02 
90.515   1.43000000e+02 
90.479   1.41000000e+02 
90.443   1.67000000e+02 
90.407   1.47000000e+02 
90.371   1.55000000e+02 
90.335   1.64000000e+02 
90.299   1.57000000e+02 
90.263   1.62000000e+02 
90.227   1.48000000e+02 
90.191   1.69000000e+02 
90.155   1.51000000e+02 
90.120   1.48000000e+02 
90.084   1.63000000e+02 
90.048   1.64000000e+02 
90.012   1.82000000e+02 
89.976   1.79000000e+02 
89.940   1.76000000e+02 
89.904   1.52000000e+02 
89.868   1.47000000e+02 
89.832   1.80000000e+02 
89.796   1.59000000e+02 
89.760   1.59000000e+02 
89.724   1.71000000e+02 
89.688   1.51000000e+02 
89.652   1.58000000e+02 
89.616   1.59000000e+02 
89.580   1.56000000e+02 
89.545   1.67000000e+02 
89.509   1.55000000e+02 
89.473   1.44000000e+02 
89.437   1.53000000e+02 
89.401   1.45000000e+02 
89.365   1.43000000e+02 
89.329   1.52000000e+02 
89.293   1.45000000e+02 
89.257   1.57000000e+02 
89.221   1.54000000e+02 
89.185   1.45000000e+02 
89.149   1.37000000e+02 
89.113   1.51000000e+02 
89.077   1.61000000e+02 
89.041   1.45000000e+02 
89.005   1.50000000e+02 
88.970   1.55000000e+02 
88.934   1.41000000e+02 
88.898   1.72000000e+02 
88.862   1.39000000e+02 
88.826   1.56000000e+02 
88.790   1.24000000e+02 
88.754   1.53000000e+02 
88.718   1.33000000e+02 
88.682   1.52000000e+02 
88.646   1.36000000e+02 
88.610   1.32000000e+02 
88.574   1.47000000e+02 
88.538   1.37000000e+02 
88.502   1.37000000e+02 
88.466   1.37000000e+02 
88.430   1.30000000e+02 
88.395   1.47000000e+02 
88.359   1.32000000e+02 
88.323   1.24000000e+02 
88.287   1.33000000e+02 
88.251   1.33000000e+02 
88.215   1.13000000e+02 
88.179   9.90000000e+01 
88.143   1.30000000e+02 
88.107   1.25000000e+02 
88.071   1.24000000e+02 
88.035   1.15000000e+02 
87.999   1.02000000e+02 
87.963   1.18000000e+02 
87.927   1.15000000e+02 
87.891   1.31000000e+02 
87.855   1.34000000e+02 
87.820   1.24000000e+02 
87.784   1.33000000e+02 
87.748   1.17000000e+02 
87.712   1.32000000e+02 
87.676   1.30000000e+02 
87.640   1.20000000e+02 
87.604   1.15000000e+02 
87.568   1.27000000e+02 
87.532   1.28000000e+02 
87.496   1.13000000e+02 
87.460   1.36000000e+02 
87.424   1.21000000e+02 
87.388   1.43000000e+02 
87.352   1.43000000e+02 
87.316   1.28000000e+02 
87.280   1.21000000e+02 
87.245   1.34000000e+02 
87.209   1.56000000e+02 
87.173   1.43000000e+02 
87.137   1.37000000e+02 
87.101   1.61000000e+02 
87.065   1.45000000e+02 
87.029   1.63000000e+02 
86.993   1.40000000e+02 
86.957   1.30000000e+02 
86.921   1.41000000e+02 
86.885   1.27000000e+02 
86.849   1.40000000e+02 
86.813   1.33000000e+02 
86.777   1.36000000e+02 
86.741   1.30000000e+02 
86.705   1.39000000e+02 
86.670   1.44000000e+02 
86.634   1.27000000e+02 
86.598   1.43000000e+02 
86.562   1.18000000e+02 
86.526   1.52000000e+02 
86.490   1.36000000e+02 
86.454   1.38000000e+02 
86.418   1.27000000e+02 
86.382   1.57000000e+02 
86.346   1.52000000e+02 
86.310   1.32000000e+02 
86.274   1.29000000e+02 
86.238   1.39000000e+02 
86.202   1.62000000e+02 
86.166   1.39000000e+02 
86.130   1.56000000e+02 
86.095   1.47000000e+02 
86.059   1.36000000e+02 
86.023   1.22000000e+02 

