EXPERIMENT FILE
Version = 2

[ Experiment Parameters ]
Experiment Description= <none> 
Number_of_Regions_in_Experiment= 1 

Original_File_name= C:\alexesca\data\0827_400W_37Deg.xps 
Instrument= HP ESCA West
Date= 08-28-2012
Time=  12:34:57

[ Layer Parameters ]
Layer_Type= XPS

[ Region 1 Parameters ]
Region_Description = Au Dithered Scan Test              
BEcenter(eV) = 91.000000
BEwidth(eV) = 10.000000
BEstep(eV) = 0.035937
Dwell_Time(sec) = 1.000000
N_o_scans = 1  
N_o_Channels = 278  
Scan_mode = 0  (DITHERED)

[ L= 1 R= 1 ]
BEcenter= 91.000  
BEwidth= -9.955  
Excitation= 1486.600
Time_p_channel= 256.000 
Size= 278
95.977   3.74000000e+02 
95.941   3.92000000e+02 
95.905   4.12000000e+02 
95.870   4.58000000e+02 
95.834   4.40000000e+02 
95.798   4.59000000e+02 
95.762   4.77000000e+02 
95.726   4.37000000e+02 
95.690   4.89000000e+02 
95.654   4.81000000e+02 
95.618   5.01000000e+02 
95.582   5.16000000e+02 
95.546   5.76000000e+02 
95.510   5.89000000e+02 
95.474   5.93000000e+02 
95.438   6.29000000e+02 
95.402   6.25000000e+02 
95.366   6.92000000e+02 
95.330   6.68000000e+02 
95.295   7.04000000e+02 
95.259   7.40000000e+02 
95.223   7.53000000e+02 
95.187   8.30000000e+02 
95.151   8.02000000e+02 
95.115   8.78000000e+02 
95.079   8.72000000e+02 
95.043   9.45000000e+02 
95.007   9.30000000e+02 
94.971   9.90000000e+02 
94.935   1.07700000e+03 
94.899   1.08700000e+03 
94.863   1.13400000e+03 
94.827   1.13400000e+03 
94.791   1.23100000e+03 
94.755   1.27200000e+03 
94.720   1.39600000e+03 
94.684   1.40100000e+03 
94.648   1.36800000e+03 
94.612   1.44300000e+03 
94.576   1.51200000e+03 
94.540   1.50500000e+03 
94.504   1.52700000e+03 
94.468   1.57300000e+03 
94.432   1.59900000e+03 
94.396   1.56700000e+03 
94.360   1.56200000e+03 
94.324   1.61400000e+03 
94.288   1.58500000e+03 
94.252   1.56000000e+03 
94.216   1.57500000e+03 
94.180   1.48400000e+03 
94.145   1.45100000e+03 
94.109   1.36700000e+03 
94.073   1.24600000e+03 
94.037   1.21900000e+03 
94.001   1.17300000e+03 
93.965   1.06100000e+03 
93.929   9.82000000e+02 
93.893   8.75000000e+02 
93.857   8.58000000e+02 
93.821   7.56000000e+02 
93.785   7.20000000e+02 
93.749   6.51000000e+02 
93.713   6.09000000e+02 
93.677   6.12000000e+02 
93.641   5.64000000e+02 
93.605   5.06000000e+02 
93.570   4.94000000e+02 
93.534   4.98000000e+02 
93.498   4.64000000e+02 
93.462   4.79000000e+02 
93.426   4.41000000e+02 
93.390   4.52000000e+02 
93.354   4.05000000e+02 
93.318   4.33000000e+02 
93.282   3.60000000e+02 
93.246   3.31000000e+02 
93.210   3.77000000e+02 
93.174   3.38000000e+02 
93.138   3.60000000e+02 
93.102   3.54000000e+02 
93.066   3.32000000e+02 
93.030   3.11000000e+02 
92.995   3.05000000e+02 
92.959   3.15000000e+02 
92.923   3.18000000e+02 
92.887   3.32000000e+02 
92.851   3.24000000e+02 
92.815   3.21000000e+02 
92.779   3.10000000e+02 
92.743   3.42000000e+02 
92.707   3.36000000e+02 
92.671   3.18000000e+02 
92.635   3.37000000e+02 
92.599   3.19000000e+02 
92.563   3.45000000e+02 
92.527   3.66000000e+02 
92.491   3.70000000e+02 
92.455   3.73000000e+02 
92.420   3.32000000e+02 
92.384   3.95000000e+02 
92.348   3.43000000e+02 
92.312   3.60000000e+02 
92.276   3.94000000e+02 
92.240   3.91000000e+02 
92.204   4.02000000e+02 
92.168   4.33000000e+02 
92.132   4.15000000e+02 
92.096   4.66000000e+02 
92.060   4.78000000e+02 
92.024   4.60000000e+02 
91.988   4.79000000e+02 
91.952   5.44000000e+02 
91.916   5.41000000e+02 
91.880   5.74000000e+02 
91.845   6.28000000e+02 
91.809   6.19000000e+02 
91.773   6.43000000e+02 
91.737   6.61000000e+02 
91.701   7.20000000e+02 
91.665   7.26000000e+02 
91.629   7.16000000e+02 
91.593   8.14000000e+02 
91.557   8.42000000e+02 
91.521   9.03000000e+02 
91.485   9.24000000e+02 
91.449   9.26000000e+02 
91.413   9.90000000e+02 
91.377   1.04800000e+03 
91.341   1.10000000e+03 
91.305   1.12700000e+03 
91.270   1.20900000e+03 
91.234   1.21000000e+03 
91.198   1.30500000e+03 
91.162   1.37400000e+03 
91.126   1.30700000e+03 
91.090   1.41400000e+03 
91.054   1.55700000e+03 
91.018   1.52500000e+03 
90.982   1.66100000e+03 
90.946   1.71600000e+03 
90.910   1.66200000e+03 
90.874   1.77900000e+03 
90.838   1.78400000e+03 
90.802   1.89100000e+03 
90.766   1.85600000e+03 
90.730   1.88100000e+03 
90.695   1.88500000e+03 
90.659   1.86600000e+03 
90.623   1.85400000e+03 
90.587   1.77400000e+03 
90.551   1.82400000e+03 
90.515   1.72800000e+03 
90.479   1.62300000e+03 
90.443   1.56900000e+03 
90.407   1.52200000e+03 
90.371   1.42300000e+03 
90.335   1.34800000e+03 
90.299   1.17400000e+03 
90.263   1.06300000e+03 
90.227   9.79000000e+02 
90.191   8.89000000e+02 
90.155   8.34000000e+02 
90.120   7.23000000e+02 
90.084   6.78000000e+02 
90.048   6.16000000e+02 
90.012   5.71000000e+02 
89.976   5.19000000e+02 
89.940   4.95000000e+02 
89.904   4.80000000e+02 
89.868   4.22000000e+02 
89.832   3.71000000e+02 
89.796   3.68000000e+02 
89.760   3.54000000e+02 
89.724   3.13000000e+02 
89.688   3.12000000e+02 
89.652   3.09000000e+02 
89.616   2.76000000e+02 
89.580   2.82000000e+02 
89.545   2.25000000e+02 
89.509   2.39000000e+02 
89.473   2.33000000e+02 
89.437   2.17000000e+02 
89.401   1.98000000e+02 
89.365   2.03000000e+02 
89.329   1.90000000e+02 
89.293   1.87000000e+02 
89.257   2.29000000e+02 
89.221   1.60000000e+02 
89.185   1.98000000e+02 
89.149   1.62000000e+02 
89.113   1.64000000e+02 
89.077   1.74000000e+02 
89.041   1.51000000e+02 
89.005   1.84000000e+02 
88.970   1.49000000e+02 
88.934   1.35000000e+02 
88.898   1.21000000e+02 
88.862   1.36000000e+02 
88.826   1.40000000e+02 
88.790   1.60000000e+02 
88.754   1.22000000e+02 
88.718   1.25000000e+02 
88.682   1.27000000e+02 
88.646   1.36000000e+02 
88.610   1.50000000e+02 
88.574   1.31000000e+02 
88.538   1.35000000e+02 
88.502   1.40000000e+02 
88.466   1.38000000e+02 
88.430   1.33000000e+02 
88.395   1.35000000e+02 
88.359   1.24000000e+02 
88.323   1.27000000e+02 
88.287   1.19000000e+02 
88.251   1.24000000e+02 
88.215   1.37000000e+02 
88.179   1.30000000e+02 
88.143   1.35000000e+02 
88.107   1.25000000e+02 
88.071   1.21000000e+02 
88.035   1.51000000e+02 
87.999   1.30000000e+02 
87.963   1.03000000e+02 
87.927   1.22000000e+02 
87.891   1.09000000e+02 
87.855   1.08000000e+02 
87.820   1.35000000e+02 
87.784   1.11000000e+02 
87.748   1.10000000e+02 
87.712   1.04000000e+02 
87.676   1.12000000e+02 
87.640   1.20000000e+02 
87.604   1.05000000e+02 
87.568   9.30000000e+01 
87.532   1.25000000e+02 
87.496   1.14000000e+02 
87.460   1.10000000e+02 
87.424   1.17000000e+02 
87.388   1.15000000e+02 
87.352   1.37000000e+02 
87.316   1.16000000e+02 
87.280   1.19000000e+02 
87.245   1.19000000e+02 
87.209   1.09000000e+02 
87.173   1.38000000e+02 
87.137   1.34000000e+02 
87.101   1.10000000e+02 
87.065   1.21000000e+02 
87.029   1.21000000e+02 
86.993   9.60000000e+01 
86.957   1.02000000e+02 
86.921   9.70000000e+01 
86.885   1.17000000e+02 
86.849   1.04000000e+02 
86.813   1.13000000e+02 
86.777   1.13000000e+02 
86.741   1.12000000e+02 
86.705   1.18000000e+02 
86.670   1.03000000e+02 
86.634   1.11000000e+02 
86.598   1.04000000e+02 
86.562   1.11000000e+02 
86.526   1.15000000e+02 
86.490   1.04000000e+02 
86.454   8.10000000e+01 
86.418   1.17000000e+02 
86.382   1.23000000e+02 
86.346   8.80000000e+01 
86.310   1.06000000e+02 
86.274   1.24000000e+02 
86.238   1.07000000e+02 
86.202   1.18000000e+02 
86.166   1.24000000e+02 
86.130   1.14000000e+02 
86.095   1.14000000e+02 
86.059   1.14000000e+02 
86.023   9.70000000e+01 

