EXPERIMENT FILE
Version = 2

[ Experiment Parameters ]
Experiment Description= <none> 
Number_of_Regions_in_Experiment= 1 

Original_File_name= C:\alexesca\data\0827_400W_31Deg.xps 
Instrument= HP ESCA West
Date= 08-27-2012
Time=  16:32:16

[ Layer Parameters ]
Layer_Type= XPS

[ Region 1 Parameters ]
Region_Description = Au Dithered Scan Test              
BEcenter(eV) = 91.000000
BEwidth(eV) = 10.000000
BEstep(eV) = 0.035937
Dwell_Time(sec) = 1.000000
N_o_scans = 1  
N_o_Channels = 278  
Scan_mode = 0  (DITHERED)

[ L= 1 R= 1 ]
BEcenter= 91.000  
BEwidth= -9.955  
Excitation= 1486.600
Time_p_channel= 256.000 
Size= 278
95.977   2.40000000e+01 
95.941   3.40000000e+01 
95.905   4.40000000e+01 
95.870   4.60000000e+01 
95.834   4.10000000e+01 
95.798   3.80000000e+01 
95.762   3.90000000e+01 
95.726   4.50000000e+01 
95.690   3.10000000e+01 
95.654   5.00000000e+01 
95.618   4.90000000e+01 
95.582   5.90000000e+01 
95.546   3.90000000e+01 
95.510   4.10000000e+01 
95.474   4.90000000e+01 
95.438   4.30000000e+01 
95.402   5.20000000e+01 
95.366   6.30000000e+01 
95.330   6.60000000e+01 
95.295   6.10000000e+01 
95.259   5.30000000e+01 
95.223   6.40000000e+01 
95.187   7.90000000e+01 
95.151   6.50000000e+01 
95.115   7.00000000e+01 
95.079   7.40000000e+01 
95.043   6.30000000e+01 
95.007   7.90000000e+01 
94.971   7.10000000e+01 
94.935   6.90000000e+01 
94.899   1.02000000e+02 
94.863   8.40000000e+01 
94.827   1.06000000e+02 
94.791   1.27000000e+02 
94.755   9.80000000e+01 
94.720   1.10000000e+02 
94.684   1.05000000e+02 
94.648   1.14000000e+02 
94.612   1.17000000e+02 
94.576   1.18000000e+02 
94.540   1.40000000e+02 
94.504   1.32000000e+02 
94.468   1.21000000e+02 
94.432   1.15000000e+02 
94.396   1.20000000e+02 
94.360   1.24000000e+02 
94.324   1.27000000e+02 
94.288   1.35000000e+02 
94.252   1.12000000e+02 
94.216   1.15000000e+02 
94.180   1.24000000e+02 
94.145   1.31000000e+02 
94.109   1.20000000e+02 
94.073   1.32000000e+02 
94.037   1.09000000e+02 
94.001   1.20000000e+02 
93.965   1.10000000e+02 
93.929   1.10000000e+02 
93.893   1.18000000e+02 
93.857   1.07000000e+02 
93.821   9.60000000e+01 
93.785   1.00000000e+02 
93.749   7.60000000e+01 
93.713   8.30000000e+01 
93.677   9.30000000e+01 
93.641   6.00000000e+01 
93.605   7.30000000e+01 
93.570   7.90000000e+01 
93.534   5.70000000e+01 
93.498   6.10000000e+01 
93.462   5.10000000e+01 
93.426   5.20000000e+01 
93.390   5.10000000e+01 
93.354   4.00000000e+01 
93.318   4.00000000e+01 
93.282   3.70000000e+01 
93.246   4.60000000e+01 
93.210   4.70000000e+01 
93.174   3.60000000e+01 
93.138   3.50000000e+01 
93.102   3.90000000e+01 
93.066   3.90000000e+01 
93.030   4.20000000e+01 
92.995   3.20000000e+01 
92.959   2.70000000e+01 
92.923   4.20000000e+01 
92.887   2.50000000e+01 
92.851   4.60000000e+01 
92.815   3.90000000e+01 
92.779   3.20000000e+01 
92.743   3.60000000e+01 
92.707   3.00000000e+01 
92.671   3.00000000e+01 
92.635   3.00000000e+01 
92.599   3.80000000e+01 
92.563   3.60000000e+01 
92.527   3.70000000e+01 
92.491   4.00000000e+01 
92.455   2.90000000e+01 
92.420   4.30000000e+01 
92.384   3.60000000e+01 
92.348   2.10000000e+01 
92.312   3.00000000e+01 
92.276   3.60000000e+01 
92.240   4.70000000e+01 
92.204   3.10000000e+01 
92.168   4.20000000e+01 
92.132   4.20000000e+01 
92.096   3.30000000e+01 
92.060   5.20000000e+01 
92.024   5.10000000e+01 
91.988   4.30000000e+01 
91.952   4.20000000e+01 
91.916   6.40000000e+01 
91.880   5.20000000e+01 
91.845   6.10000000e+01 
91.809   5.60000000e+01 
91.773   5.60000000e+01 
91.737   7.00000000e+01 
91.701   7.20000000e+01 
91.665   6.90000000e+01 
91.629   6.60000000e+01 
91.593   7.10000000e+01 
91.557   8.20000000e+01 
91.521   6.60000000e+01 
91.485   1.02000000e+02 
91.449   7.10000000e+01 
91.413   7.10000000e+01 
91.377   1.07000000e+02 
91.341   9.30000000e+01 
91.305   8.70000000e+01 
91.270   1.01000000e+02 
91.234   1.02000000e+02 
91.198   1.22000000e+02 
91.162   1.04000000e+02 
91.126   1.09000000e+02 
91.090   9.70000000e+01 
91.054   1.40000000e+02 
91.018   1.35000000e+02 
90.982   1.30000000e+02 
90.946   1.20000000e+02 
90.910   1.44000000e+02 
90.874   1.32000000e+02 
90.838   1.38000000e+02 
90.802   1.59000000e+02 
90.766   1.53000000e+02 
90.730   1.62000000e+02 
90.695   1.64000000e+02 
90.659   1.70000000e+02 
90.623   1.41000000e+02 
90.587   1.40000000e+02 
90.551   1.57000000e+02 
90.515   1.47000000e+02 
90.479   1.30000000e+02 
90.443   1.51000000e+02 
90.407   1.55000000e+02 
90.371   1.45000000e+02 
90.335   1.44000000e+02 
90.299   1.18000000e+02 
90.263   1.23000000e+02 
90.227   1.16000000e+02 
90.191   8.30000000e+01 
90.155   1.19000000e+02 
90.120   9.70000000e+01 
90.084   7.90000000e+01 
90.048   8.50000000e+01 
90.012   1.01000000e+02 
89.976   7.60000000e+01 
89.940   6.30000000e+01 
89.904   6.00000000e+01 
89.868   6.50000000e+01 
89.832   5.60000000e+01 
89.796   4.60000000e+01 
89.760   3.50000000e+01 
89.724   5.50000000e+01 
89.688   3.90000000e+01 
89.652   4.50000000e+01 
89.616   3.20000000e+01 
89.580   3.80000000e+01 
89.545   2.50000000e+01 
89.509   2.50000000e+01 
89.473   3.50000000e+01 
89.437   2.60000000e+01 
89.401   2.70000000e+01 
89.365   2.50000000e+01 
89.329   2.00000000e+01 
89.293   1.70000000e+01 
89.257   1.40000000e+01 
89.221   1.50000000e+01 
89.185   2.20000000e+01 
89.149   6.00000000e+00 
89.113   1.30000000e+01 
89.077   1.60000000e+01 
89.041   1.40000000e+01 
89.005   1.60000000e+01 
88.970   1.80000000e+01 
88.934   1.60000000e+01 
88.898   2.00000000e+01 
88.862   1.70000000e+01 
88.826   1.50000000e+01 
88.790   1.60000000e+01 
88.754   1.60000000e+01 
88.718   2.20000000e+01 
88.682   1.30000000e+01 
88.646   8.00000000e+00 
88.610   1.30000000e+01 
88.574   1.10000000e+01 
88.538   1.00000000e+01 
88.502   1.30000000e+01 
88.466   1.80000000e+01 
88.430   1.60000000e+01 
88.395   2.00000000e+01 
88.359   1.70000000e+01 
88.323   1.40000000e+01 
88.287   1.80000000e+01 
88.251   1.80000000e+01 
88.215   1.60000000e+01 
88.179   1.50000000e+01 
88.143   1.10000000e+01 
88.107   9.00000000e+00 
88.071   1.40000000e+01 
88.035   1.10000000e+01 
87.999   1.20000000e+01 
87.963   1.50000000e+01 
87.927   6.00000000e+00 
87.891   1.50000000e+01 
87.855   1.30000000e+01 
87.820   1.30000000e+01 
87.784   1.40000000e+01 
87.748   1.10000000e+01 
87.712   1.90000000e+01 
87.676   1.10000000e+01 
87.640   1.80000000e+01 
87.604   1.60000000e+01 
87.568   1.60000000e+01 
87.532   1.60000000e+01 
87.496   1.30000000e+01 
87.460   1.20000000e+01 
87.424   1.10000000e+01 
87.388   1.80000000e+01 
87.352   1.20000000e+01 
87.316   1.20000000e+01 
87.280   1.80000000e+01 
87.245   1.50000000e+01 
87.209   9.00000000e+00 
87.173   1.40000000e+01 
87.137   1.80000000e+01 
87.101   1.30000000e+01 
87.065   1.70000000e+01 
87.029   1.00000000e+01 
86.993   1.30000000e+01 
86.957   1.60000000e+01 
86.921   2.00000000e+01 
86.885   1.10000000e+01 
86.849   9.00000000e+00 
86.813   1.60000000e+01 
86.777   1.10000000e+01 
86.741   1.40000000e+01 
86.705   1.10000000e+01 
86.670   8.00000000e+00 
86.634   1.20000000e+01 
86.598   7.00000000e+00 
86.562   1.00000000e+01 
86.526   1.90000000e+01 
86.490   1.40000000e+01 
86.454   1.20000000e+01 
86.418   9.00000000e+00 
86.382   1.30000000e+01 
86.346   1.00000000e+01 
86.310   1.50000000e+01 
86.274   8.00000000e+00 
86.238   1.40000000e+01 
86.202   1.30000000e+01 
86.166   1.60000000e+01 
86.130   9.00000000e+00 
86.095   1.20000000e+01 
86.059   8.00000000e+00 
86.023   1.40000000e+01 

