EXPERIMENT FILE
Version = 2

[ Experiment Parameters ]
Experiment Description= <none> 
Number_of_Regions_in_Experiment= 1 

Original_File_name= C:\alexesca\data\0827_400W_35Deg.xps 
Instrument= HP ESCA West
Date= 08-27-2012
Time=  16:19:30

[ Layer Parameters ]
Layer_Type= XPS

[ Region 1 Parameters ]
Region_Description = Au Dithered Scan Test              
BEcenter(eV) = 91.000000
BEwidth(eV) = 10.000000
BEstep(eV) = 0.035937
Dwell_Time(sec) = 1.000000
N_o_scans = 1  
N_o_Channels = 278  
Scan_mode = 0  (DITHERED)

[ L= 1 R= 1 ]
BEcenter= 91.000  
BEwidth= -9.955  
Excitation= 1486.600
Time_p_channel= 256.000 
Size= 278
95.977   3.57000000e+02 
95.941   3.53000000e+02 
95.905   3.59000000e+02 
95.870   3.82000000e+02 
95.834   4.05000000e+02 
95.798   4.34000000e+02 
95.762   4.39000000e+02 
95.726   4.15000000e+02 
95.690   4.48000000e+02 
95.654   4.91000000e+02 
95.618   4.48000000e+02 
95.582   5.25000000e+02 
95.546   5.79000000e+02 
95.510   5.48000000e+02 
95.474   5.73000000e+02 
95.438   6.21000000e+02 
95.402   6.00000000e+02 
95.366   6.54000000e+02 
95.330   6.17000000e+02 
95.295   7.44000000e+02 
95.259   7.21000000e+02 
95.223   7.42000000e+02 
95.187   8.40000000e+02 
95.151   8.39000000e+02 
95.115   8.75000000e+02 
95.079   9.14000000e+02 
95.043   8.90000000e+02 
95.007   9.71000000e+02 
94.971   1.08300000e+03 
94.935   9.99000000e+02 
94.899   9.75000000e+02 
94.863   1.04100000e+03 
94.827   1.09400000e+03 
94.791   1.03800000e+03 
94.755   1.13100000e+03 
94.720   1.14500000e+03 
94.684   1.17700000e+03 
94.648   1.13600000e+03 
94.612   1.13200000e+03 
94.576   1.16500000e+03 
94.540   1.11700000e+03 
94.504   1.09800000e+03 
94.468   1.01000000e+03 
94.432   1.02600000e+03 
94.396   8.99000000e+02 
94.360   8.79000000e+02 
94.324   8.47000000e+02 
94.288   8.37000000e+02 
94.252   7.18000000e+02 
94.216   7.57000000e+02 
94.180   6.68000000e+02 
94.145   5.90000000e+02 
94.109   5.84000000e+02 
94.073   5.41000000e+02 
94.037   5.16000000e+02 
94.001   4.61000000e+02 
93.965   3.97000000e+02 
93.929   3.96000000e+02 
93.893   4.20000000e+02 
93.857   3.39000000e+02 
93.821   3.85000000e+02 
93.785   3.50000000e+02 
93.749   3.04000000e+02 
93.713   3.04000000e+02 
93.677   2.80000000e+02 
93.641   2.79000000e+02 
93.605   2.88000000e+02 
93.570   2.48000000e+02 
93.534   2.65000000e+02 
93.498   2.52000000e+02 
93.462   2.48000000e+02 
93.426   2.31000000e+02 
93.390   2.34000000e+02 
93.354   2.38000000e+02 
93.318   2.33000000e+02 
93.282   2.29000000e+02 
93.246   2.47000000e+02 
93.210   2.42000000e+02 
93.174   2.41000000e+02 
93.138   2.36000000e+02 
93.102   2.30000000e+02 
93.066   2.44000000e+02 
93.030   2.18000000e+02 
92.995   2.51000000e+02 
92.959   2.19000000e+02 
92.923   2.37000000e+02 
92.887   2.35000000e+02 
92.851   2.38000000e+02 
92.815   2.36000000e+02 
92.779   2.29000000e+02 
92.743   2.55000000e+02 
92.707   2.89000000e+02 
92.671   3.01000000e+02 
92.635   2.37000000e+02 
92.599   3.06000000e+02 
92.563   2.91000000e+02 
92.527   2.89000000e+02 
92.491   3.20000000e+02 
92.455   3.36000000e+02 
92.420   3.39000000e+02 
92.384   3.50000000e+02 
92.348   3.51000000e+02 
92.312   3.72000000e+02 
92.276   3.72000000e+02 
92.240   3.88000000e+02 
92.204   3.94000000e+02 
92.168   4.32000000e+02 
92.132   4.20000000e+02 
92.096   4.54000000e+02 
92.060   5.00000000e+02 
92.024   4.59000000e+02 
91.988   5.34000000e+02 
91.952   5.31000000e+02 
91.916   6.00000000e+02 
91.880   5.90000000e+02 
91.845   6.62000000e+02 
91.809   6.50000000e+02 
91.773   7.06000000e+02 
91.737   7.81000000e+02 
91.701   7.79000000e+02 
91.665   8.41000000e+02 
91.629   8.97000000e+02 
91.593   8.54000000e+02 
91.557   9.24000000e+02 
91.521   1.02800000e+03 
91.485   1.00600000e+03 
91.449   1.04100000e+03 
91.413   1.13800000e+03 
91.377   1.19200000e+03 
91.341   1.22900000e+03 
91.305   1.25600000e+03 
91.270   1.29200000e+03 
91.234   1.34800000e+03 
91.198   1.42000000e+03 
91.162   1.40600000e+03 
91.126   1.40100000e+03 
91.090   1.42700000e+03 
91.054   1.50500000e+03 
91.018   1.40500000e+03 
90.982   1.34600000e+03 
90.946   1.43400000e+03 
90.910   1.31200000e+03 
90.874   1.32100000e+03 
90.838   1.16200000e+03 
90.802   1.16900000e+03 
90.766   1.07400000e+03 
90.730   9.18000000e+02 
90.695   9.37000000e+02 
90.659   8.54000000e+02 
90.623   7.24000000e+02 
90.587   6.26000000e+02 
90.551   6.09000000e+02 
90.515   4.95000000e+02 
90.479   4.89000000e+02 
90.443   4.10000000e+02 
90.407   4.10000000e+02 
90.371   3.82000000e+02 
90.335   3.54000000e+02 
90.299   3.20000000e+02 
90.263   2.78000000e+02 
90.227   2.61000000e+02 
90.191   2.36000000e+02 
90.155   2.10000000e+02 
90.120   1.93000000e+02 
90.084   2.01000000e+02 
90.048   2.13000000e+02 
90.012   1.92000000e+02 
89.976   1.63000000e+02 
89.940   1.54000000e+02 
89.904   1.85000000e+02 
89.868   1.32000000e+02 
89.832   1.36000000e+02 
89.796   1.26000000e+02 
89.760   1.43000000e+02 
89.724   1.42000000e+02 
89.688   1.34000000e+02 
89.652   1.29000000e+02 
89.616   1.37000000e+02 
89.580   1.17000000e+02 
89.545   1.03000000e+02 
89.509   1.24000000e+02 
89.473   1.07000000e+02 
89.437   1.22000000e+02 
89.401   1.07000000e+02 
89.365   1.07000000e+02 
89.329   1.16000000e+02 
89.293   1.00000000e+02 
89.257   1.17000000e+02 
89.221   1.11000000e+02 
89.185   9.90000000e+01 
89.149   1.20000000e+02 
89.113   1.04000000e+02 
89.077   1.09000000e+02 
89.041   1.04000000e+02 
89.005   1.03000000e+02 
88.970   1.00000000e+02 
88.934   9.10000000e+01 
88.898   1.06000000e+02 
88.862   9.50000000e+01 
88.826   9.10000000e+01 
88.790   8.60000000e+01 
88.754   1.09000000e+02 
88.718   1.06000000e+02 
88.682   9.10000000e+01 
88.646   9.20000000e+01 
88.610   1.04000000e+02 
88.574   9.60000000e+01 
88.538   8.90000000e+01 
88.502   8.60000000e+01 
88.466   9.20000000e+01 
88.430   9.20000000e+01 
88.395   8.90000000e+01 
88.359   9.20000000e+01 
88.323   8.70000000e+01 
88.287   9.10000000e+01 
88.251   7.50000000e+01 
88.215   9.00000000e+01 
88.179   7.80000000e+01 
88.143   9.20000000e+01 
88.107   9.10000000e+01 
88.071   1.08000000e+02 
88.035   8.70000000e+01 
87.999   9.40000000e+01 
87.963   9.70000000e+01 
87.927   7.50000000e+01 
87.891   9.80000000e+01 
87.855   9.20000000e+01 
87.820   9.30000000e+01 
87.784   8.50000000e+01 
87.748   8.80000000e+01 
87.712   8.60000000e+01 
87.676   8.70000000e+01 
87.640   8.20000000e+01 
87.604   7.90000000e+01 
87.568   7.30000000e+01 
87.532   8.40000000e+01 
87.496   9.50000000e+01 
87.460   8.70000000e+01 
87.424   7.60000000e+01 
87.388   8.10000000e+01 
87.352   8.80000000e+01 
87.316   8.30000000e+01 
87.280   6.90000000e+01 
87.245   7.60000000e+01 
87.209   7.80000000e+01 
87.173   7.30000000e+01 
87.137   9.40000000e+01 
87.101   7.40000000e+01 
87.065   9.90000000e+01 
87.029   1.02000000e+02 
86.993   1.01000000e+02 
86.957   8.50000000e+01 
86.921   8.60000000e+01 
86.885   7.60000000e+01 
86.849   7.70000000e+01 
86.813   5.70000000e+01 
86.777   7.50000000e+01 
86.741   9.10000000e+01 
86.705   6.90000000e+01 
86.670   8.40000000e+01 
86.634   7.00000000e+01 
86.598   7.70000000e+01 
86.562   7.40000000e+01 
86.526   7.00000000e+01 
86.490   8.80000000e+01 
86.454   7.80000000e+01 
86.418   6.60000000e+01 
86.382   7.10000000e+01 
86.346   8.20000000e+01 
86.310   8.90000000e+01 
86.274   7.10000000e+01 
86.238   8.30000000e+01 
86.202   9.30000000e+01 
86.166   7.80000000e+01 
86.130   8.80000000e+01 
86.095   7.90000000e+01 
86.059   9.40000000e+01 
86.023   8.50000000e+01 

