EXPERIMENT FILE
Version = 2

[ Experiment Parameters ]
Experiment Description= <none> 
Number_of_Regions_in_Experiment= 1 

Original_File_name= C:\alexesca\data\0827_400W_2.xps 
Instrument= HP ESCA West
Date= 08-27-2012
Time=  16:06:46

[ Layer Parameters ]
Layer_Type= XPS

[ Region 1 Parameters ]
Region_Description = Au Dithered Scan Test              
BEcenter(eV) = 91.000000
BEwidth(eV) = 10.000000
BEstep(eV) = 0.035937
Dwell_Time(sec) = 1.000000
N_o_scans = 1  
N_o_Channels = 278  
Scan_mode = 0  (DITHERED)

[ L= 1 R= 1 ]
BEcenter= 91.000  
BEwidth= -9.955  
Excitation= 1486.600
Time_p_channel= 256.000 
Size= 278
95.977   1.60000000e+01 
95.941   1.00000000e+01 
95.905   1.40000000e+01 
95.870   1.00000000e+01 
95.834   1.60000000e+01 
95.798   1.30000000e+01 
95.762   1.20000000e+01 
95.726   1.30000000e+01 
95.690   2.10000000e+01 
95.654   1.80000000e+01 
95.618   2.10000000e+01 
95.582   9.00000000e+00 
95.546   1.30000000e+01 
95.510   1.20000000e+01 
95.474   1.90000000e+01 
95.438   1.60000000e+01 
95.402   2.20000000e+01 
95.366   1.80000000e+01 
95.330   1.80000000e+01 
95.295   2.00000000e+01 
95.259   1.90000000e+01 
95.223   2.30000000e+01 
95.187   2.70000000e+01 
95.151   2.10000000e+01 
95.115   2.10000000e+01 
95.079   3.00000000e+01 
95.043   1.60000000e+01 
95.007   2.40000000e+01 
94.971   2.30000000e+01 
94.935   2.10000000e+01 
94.899   2.50000000e+01 
94.863   3.30000000e+01 
94.827   2.50000000e+01 
94.791   2.90000000e+01 
94.755   2.40000000e+01 
94.720   4.00000000e+01 
94.684   2.90000000e+01 
94.648   3.10000000e+01 
94.612   3.40000000e+01 
94.576   4.90000000e+01 
94.540   4.30000000e+01 
94.504   2.60000000e+01 
94.468   3.00000000e+01 
94.432   4.00000000e+01 
94.396   4.00000000e+01 
94.360   4.10000000e+01 
94.324   2.40000000e+01 
94.288   3.20000000e+01 
94.252   3.00000000e+01 
94.216   3.50000000e+01 
94.180   3.90000000e+01 
94.145   3.50000000e+01 
94.109   2.50000000e+01 
94.073   2.70000000e+01 
94.037   3.20000000e+01 
94.001   2.20000000e+01 
93.965   2.50000000e+01 
93.929   2.80000000e+01 
93.893   3.30000000e+01 
93.857   2.30000000e+01 
93.821   2.10000000e+01 
93.785   2.90000000e+01 
93.749   2.50000000e+01 
93.713   2.00000000e+01 
93.677   2.00000000e+01 
93.641   2.50000000e+01 
93.605   1.80000000e+01 
93.570   1.60000000e+01 
93.534   1.20000000e+01 
93.498   2.30000000e+01 
93.462   9.00000000e+00 
93.426   1.80000000e+01 
93.390   1.70000000e+01 
93.354   8.00000000e+00 
93.318   1.40000000e+01 
93.282   9.00000000e+00 
93.246   1.80000000e+01 
93.210   1.60000000e+01 
93.174   9.00000000e+00 
93.138   1.40000000e+01 
93.102   1.00000000e+01 
93.066   1.40000000e+01 
93.030   1.70000000e+01 
92.995   1.00000000e+01 
92.959   1.40000000e+01 
92.923   8.00000000e+00 
92.887   1.80000000e+01 
92.851   1.10000000e+01 
92.815   9.00000000e+00 
92.779   8.00000000e+00 
92.743   1.00000000e+01 
92.707   1.90000000e+01 
92.671   1.10000000e+01 
92.635   1.10000000e+01 
92.599   9.00000000e+00 
92.563   1.30000000e+01 
92.527   1.70000000e+01 
92.491   1.40000000e+01 
92.455   1.00000000e+01 
92.420   1.40000000e+01 
92.384   1.50000000e+01 
92.348   6.00000000e+00 
92.312   1.20000000e+01 
92.276   1.30000000e+01 
92.240   1.10000000e+01 
92.204   1.40000000e+01 
92.168   1.60000000e+01 
92.132   7.00000000e+00 
92.096   1.50000000e+01 
92.060   7.00000000e+00 
92.024   1.20000000e+01 
91.988   1.60000000e+01 
91.952   1.50000000e+01 
91.916   2.10000000e+01 
91.880   2.00000000e+01 
91.845   1.60000000e+01 
91.809   1.50000000e+01 
91.773   2.10000000e+01 
91.737   1.80000000e+01 
91.701   3.00000000e+01 
91.665   2.50000000e+01 
91.629   2.90000000e+01 
91.593   2.30000000e+01 
91.557   2.20000000e+01 
91.521   3.20000000e+01 
91.485   2.70000000e+01 
91.449   2.50000000e+01 
91.413   3.50000000e+01 
91.377   2.20000000e+01 
91.341   3.30000000e+01 
91.305   2.90000000e+01 
91.270   3.20000000e+01 
91.234   2.60000000e+01 
91.198   3.40000000e+01 
91.162   3.20000000e+01 
91.126   3.80000000e+01 
91.090   3.60000000e+01 
91.054   4.00000000e+01 
91.018   3.10000000e+01 
90.982   3.30000000e+01 
90.946   3.80000000e+01 
90.910   4.10000000e+01 
90.874   4.00000000e+01 
90.838   4.10000000e+01 
90.802   4.10000000e+01 
90.766   2.10000000e+01 
90.730   4.50000000e+01 
90.695   4.30000000e+01 
90.659   3.80000000e+01 
90.623   3.90000000e+01 
90.587   4.30000000e+01 
90.551   3.30000000e+01 
90.515   3.50000000e+01 
90.479   3.50000000e+01 
90.443   2.70000000e+01 
90.407   2.10000000e+01 
90.371   2.70000000e+01 
90.335   3.20000000e+01 
90.299   3.00000000e+01 
90.263   3.10000000e+01 
90.227   2.70000000e+01 
90.191   3.50000000e+01 
90.155   1.70000000e+01 
90.120   2.50000000e+01 
90.084   2.60000000e+01 
90.048   3.20000000e+01 
90.012   2.40000000e+01 
89.976   1.10000000e+01 
89.940   2.30000000e+01 
89.904   1.90000000e+01 
89.868   1.50000000e+01 
89.832   1.80000000e+01 
89.796   1.60000000e+01 
89.760   1.20000000e+01 
89.724   1.60000000e+01 
89.688   9.00000000e+00 
89.652   7.00000000e+00 
89.616   1.20000000e+01 
89.580   7.00000000e+00 
89.545   7.00000000e+00 
89.509   1.70000000e+01 
89.473   8.00000000e+00 
89.437   7.00000000e+00 
89.401   7.00000000e+00 
89.365   1.20000000e+01 
89.329   6.00000000e+00 
89.293   1.00000000e+01 
89.257   8.00000000e+00 
89.221   8.00000000e+00 
89.185   4.00000000e+00 
89.149   1.20000000e+01 
89.113   8.00000000e+00 
89.077   8.00000000e+00 
89.041   6.00000000e+00 
89.005   9.00000000e+00 
88.970   3.00000000e+00 
88.934   4.00000000e+00 
88.898   3.00000000e+00 
88.862   7.00000000e+00 
88.826   5.00000000e+00 
88.790   1.10000000e+01 
88.754   1.40000000e+01 
88.718   4.00000000e+00 
88.682   6.00000000e+00 
88.646   8.00000000e+00 
88.610   5.00000000e+00 
88.574   4.00000000e+00 
88.538   6.00000000e+00 
88.502   2.00000000e+00 
88.466   3.00000000e+00 
88.430   7.00000000e+00 
88.395   6.00000000e+00 
88.359   4.00000000e+00 
88.323   9.00000000e+00 
88.287   7.00000000e+00 
88.251   5.00000000e+00 
88.215   3.00000000e+00 
88.179   2.00000000e+00 
88.143   5.00000000e+00 
88.107   8.00000000e+00 
88.071   5.00000000e+00 
88.035   7.00000000e+00 
87.999   4.00000000e+00 
87.963   3.00000000e+00 
87.927   6.00000000e+00 
87.891   3.00000000e+00 
87.855   6.00000000e+00 
87.820   3.00000000e+00 
87.784   2.00000000e+00 
87.748   6.00000000e+00 
87.712   4.00000000e+00 
87.676   3.00000000e+00 
87.640   9.00000000e+00 
87.604   3.00000000e+00 
87.568   2.00000000e+00 
87.532   6.00000000e+00 
87.496   4.00000000e+00 
87.460   8.00000000e+00 
87.424   5.00000000e+00 
87.388   1.10000000e+01 
87.352   4.00000000e+00 
87.316   3.00000000e+00 
87.280   4.00000000e+00 
87.245   6.00000000e+00 
87.209   5.00000000e+00 
87.173   6.00000000e+00 
87.137   3.00000000e+00 
87.101   1.00000000e+00 
87.065   4.00000000e+00 
87.029   3.00000000e+00 
86.993   3.00000000e+00 
86.957   3.00000000e+00 
86.921   6.00000000e+00 
86.885   5.00000000e+00 
86.849   6.00000000e+00 
86.813   4.00000000e+00 
86.777   3.00000000e+00 
86.741   9.00000000e+00 
86.705   5.00000000e+00 
86.670   1.00000000e+00 
86.634   6.00000000e+00 
86.598   6.00000000e+00 
86.562   4.00000000e+00 
86.526   2.00000000e+00 
86.490   6.00000000e+00 
86.454   1.00000000e+01 
86.418   5.00000000e+00 
86.382   3.00000000e+00 
86.346   3.00000000e+00 
86.310   9.00000000e+00 
86.274   1.00000000e+00 
86.238   9.00000000e+00 
86.202   4.00000000e+00 
86.166   3.00000000e+00 
86.130   4.00000000e+00 
86.095   2.00000000e+00 
86.059   1.00000000e+00 
86.023   7.00000000e+00 

