EXPERIMENT FILE
Version = 2

[ Experiment Parameters ]
Experiment Description= <none> 
Number_of_Regions_in_Experiment= 1 

Original_File_name= C:\alexesca\data\0827_400W_38Deg.xps 
Instrument= HP ESCA West
Date= 08-28-2012
Time=  12:50:28

[ Layer Parameters ]
Layer_Type= XPS

[ Region 1 Parameters ]
Region_Description = Au Dithered Scan Test              
BEcenter(eV) = 91.000000
BEwidth(eV) = 10.000000
BEstep(eV) = 0.035937
Dwell_Time(sec) = 1.000000
N_o_scans = 1  
N_o_Channels = 278  
Scan_mode = 0  (DITHERED)

[ L= 1 R= 1 ]
BEcenter= 91.000  
BEwidth= -9.955  
Excitation= 1486.600
Time_p_channel= 256.000 
Size= 278
95.977   6.64000000e+02 
95.941   6.78000000e+02 
95.905   7.49000000e+02 
95.870   8.12000000e+02 
95.834   7.76000000e+02 
95.798   8.73000000e+02 
95.762   8.75000000e+02 
95.726   9.45000000e+02 
95.690   9.50000000e+02 
95.654   9.58000000e+02 
95.618   9.78000000e+02 
95.582   1.04500000e+03 
95.546   1.06500000e+03 
95.510   1.13000000e+03 
95.474   1.18600000e+03 
95.438   1.20500000e+03 
95.402   1.25300000e+03 
95.366   1.28800000e+03 
95.330   1.41200000e+03 
95.295   1.39000000e+03 
95.259   1.41300000e+03 
95.223   1.45300000e+03 
95.187   1.52300000e+03 
95.151   1.54400000e+03 
95.115   1.66200000e+03 
95.079   1.58900000e+03 
95.043   1.68100000e+03 
95.007   1.65000000e+03 
94.971   1.68700000e+03 
94.935   1.71400000e+03 
94.899   1.71100000e+03 
94.863   1.67600000e+03 
94.827   1.70500000e+03 
94.791   1.74500000e+03 
94.755   1.66700000e+03 
94.720   1.68700000e+03 
94.684   1.51200000e+03 
94.648   1.45300000e+03 
94.612   1.39400000e+03 
94.576   1.31400000e+03 
94.540   1.21300000e+03 
94.504   1.20600000e+03 
94.468   1.11100000e+03 
94.432   1.00100000e+03 
94.396   9.52000000e+02 
94.360   9.18000000e+02 
94.324   7.87000000e+02 
94.288   7.85000000e+02 
94.252   7.34000000e+02 
94.216   6.77000000e+02 
94.180   6.45000000e+02 
94.145   6.00000000e+02 
94.109   5.70000000e+02 
94.073   5.69000000e+02 
94.037   5.35000000e+02 
94.001   5.34000000e+02 
93.965   5.50000000e+02 
93.929   4.37000000e+02 
93.893   4.80000000e+02 
93.857   4.70000000e+02 
93.821   4.59000000e+02 
93.785   4.17000000e+02 
93.749   4.38000000e+02 
93.713   4.47000000e+02 
93.677   4.08000000e+02 
93.641   3.73000000e+02 
93.605   3.83000000e+02 
93.570   3.83000000e+02 
93.534   3.56000000e+02 
93.498   3.64000000e+02 
93.462   3.94000000e+02 
93.426   3.82000000e+02 
93.390   3.61000000e+02 
93.354   3.84000000e+02 
93.318   3.68000000e+02 
93.282   3.77000000e+02 
93.246   3.66000000e+02 
93.210   3.88000000e+02 
93.174   3.26000000e+02 
93.138   3.79000000e+02 
93.102   3.99000000e+02 
93.066   3.57000000e+02 
93.030   3.84000000e+02 
92.995   3.83000000e+02 
92.959   4.36000000e+02 
92.923   4.02000000e+02 
92.887   4.03000000e+02 
92.851   4.33000000e+02 
92.815   4.40000000e+02 
92.779   4.53000000e+02 
92.743   5.05000000e+02 
92.707   4.98000000e+02 
92.671   5.37000000e+02 
92.635   5.12000000e+02 
92.599   5.48000000e+02 
92.563   5.96000000e+02 
92.527   5.65000000e+02 
92.491   6.03000000e+02 
92.455   6.11000000e+02 
92.420   6.65000000e+02 
92.384   6.80000000e+02 
92.348   7.08000000e+02 
92.312   7.96000000e+02 
92.276   8.04000000e+02 
92.240   8.30000000e+02 
92.204   9.00000000e+02 
92.168   8.68000000e+02 
92.132   9.20000000e+02 
92.096   9.74000000e+02 
92.060   1.06400000e+03 
92.024   1.05700000e+03 
91.988   1.06900000e+03 
91.952   1.12800000e+03 
91.916   1.26300000e+03 
91.880   1.27200000e+03 
91.845   1.30800000e+03 
91.809   1.40400000e+03 
91.773   1.46200000e+03 
91.737   1.50000000e+03 
91.701   1.59700000e+03 
91.665   1.58400000e+03 
91.629   1.69500000e+03 
91.593   1.65900000e+03 
91.557   1.79300000e+03 
91.521   1.82800000e+03 
91.485   1.90600000e+03 
91.449   1.95500000e+03 
91.413   1.97600000e+03 
91.377   2.08600000e+03 
91.341   2.07500000e+03 
91.305   2.06700000e+03 
91.270   1.99200000e+03 
91.234   2.05700000e+03 
91.198   2.14100000e+03 
91.162   2.09200000e+03 
91.126   2.03500000e+03 
91.090   1.97300000e+03 
91.054   1.89000000e+03 
91.018   1.78400000e+03 
90.982   1.64400000e+03 
90.946   1.57900000e+03 
90.910   1.44300000e+03 
90.874   1.47300000e+03 
90.838   1.29500000e+03 
90.802   1.19500000e+03 
90.766   1.08700000e+03 
90.730   9.93000000e+02 
90.695   9.47000000e+02 
90.659   8.83000000e+02 
90.623   8.26000000e+02 
90.587   7.62000000e+02 
90.551   6.68000000e+02 
90.515   6.06000000e+02 
90.479   5.89000000e+02 
90.443   4.90000000e+02 
90.407   4.99000000e+02 
90.371   5.25000000e+02 
90.335   4.38000000e+02 
90.299   4.67000000e+02 
90.263   3.99000000e+02 
90.227   3.75000000e+02 
90.191   3.88000000e+02 
90.155   3.59000000e+02 
90.120   3.09000000e+02 
90.084   3.04000000e+02 
90.048   3.08000000e+02 
90.012   3.02000000e+02 
89.976   2.72000000e+02 
89.940   2.68000000e+02 
89.904   2.51000000e+02 
89.868   2.44000000e+02 
89.832   2.29000000e+02 
89.796   2.30000000e+02 
89.760   2.17000000e+02 
89.724   2.10000000e+02 
89.688   2.04000000e+02 
89.652   1.89000000e+02 
89.616   1.99000000e+02 
89.580   1.79000000e+02 
89.545   1.63000000e+02 
89.509   1.78000000e+02 
89.473   1.81000000e+02 
89.437   1.63000000e+02 
89.401   1.86000000e+02 
89.365   1.76000000e+02 
89.329   1.78000000e+02 
89.293   1.77000000e+02 
89.257   1.43000000e+02 
89.221   1.46000000e+02 
89.185   1.59000000e+02 
89.149   1.45000000e+02 
89.113   1.33000000e+02 
89.077   1.42000000e+02 
89.041   1.42000000e+02 
89.005   1.50000000e+02 
88.970   1.43000000e+02 
88.934   1.34000000e+02 
88.898   1.27000000e+02 
88.862   1.48000000e+02 
88.826   9.60000000e+01 
88.790   1.48000000e+02 
88.754   1.28000000e+02 
88.718   1.16000000e+02 
88.682   1.47000000e+02 
88.646   1.46000000e+02 
88.610   1.28000000e+02 
88.574   1.38000000e+02 
88.538   1.53000000e+02 
88.502   1.51000000e+02 
88.466   1.46000000e+02 
88.430   1.31000000e+02 
88.395   1.42000000e+02 
88.359   1.24000000e+02 
88.323   1.44000000e+02 
88.287   1.34000000e+02 
88.251   1.22000000e+02 
88.215   1.33000000e+02 
88.179   1.26000000e+02 
88.143   1.20000000e+02 
88.107   1.16000000e+02 
88.071   1.00000000e+02 
88.035   1.41000000e+02 
87.999   1.30000000e+02 
87.963   1.33000000e+02 
87.927   1.20000000e+02 
87.891   1.30000000e+02 
87.855   1.19000000e+02 
87.820   1.30000000e+02 
87.784   1.19000000e+02 
87.748   1.28000000e+02 
87.712   1.11000000e+02 
87.676   1.26000000e+02 
87.640   1.34000000e+02 
87.604   1.08000000e+02 
87.568   1.03000000e+02 
87.532   1.26000000e+02 
87.496   1.28000000e+02 
87.460   1.21000000e+02 
87.424   1.24000000e+02 
87.388   1.14000000e+02 
87.352   1.32000000e+02 
87.316   1.06000000e+02 
87.280   9.60000000e+01 
87.245   1.23000000e+02 
87.209   1.12000000e+02 
87.173   1.26000000e+02 
87.137   1.19000000e+02 
87.101   1.18000000e+02 
87.065   1.29000000e+02 
87.029   1.27000000e+02 
86.993   1.20000000e+02 
86.957   1.40000000e+02 
86.921   1.12000000e+02 
86.885   1.05000000e+02 
86.849   9.20000000e+01 
86.813   1.31000000e+02 
86.777   1.14000000e+02 
86.741   1.19000000e+02 
86.705   1.07000000e+02 
86.670   1.18000000e+02 
86.634   9.60000000e+01 
86.598   1.11000000e+02 
86.562   1.23000000e+02 
86.526   1.08000000e+02 
86.490   1.15000000e+02 
86.454   1.19000000e+02 
86.418   1.19000000e+02 
86.382   1.21000000e+02 
86.346   1.15000000e+02 
86.310   1.25000000e+02 
86.274   1.30000000e+02 
86.238   1.15000000e+02 
86.202   1.19000000e+02 
86.166   1.20000000e+02 
86.130   1.26000000e+02 
86.095   1.21000000e+02 
86.059   1.17000000e+02 
86.023   1.14000000e+02 

