EXPERIMENT FILE
Version = 2

[ Experiment Parameters ]
Experiment Description= <none> 
Number_of_Regions_in_Experiment= 1 

Original_File_name= C:\alexesca\data\0827_400W_34Deg.xps 
Instrument= HP ESCA West
Date= 08-28-2012
Time=  11:53:11

[ Layer Parameters ]
Layer_Type= XPS

[ Region 1 Parameters ]
Region_Description = Au Dithered Scan Test              
BEcenter(eV) = 91.000000
BEwidth(eV) = 10.000000
BEstep(eV) = 0.035937
Dwell_Time(sec) = 1.000000
N_o_scans = 1  
N_o_Channels = 278  
Scan_mode = 0  (DITHERED)

[ L= 1 R= 1 ]
BEcenter= 91.000  
BEwidth= -9.955  
Excitation= 1486.600
Time_p_channel= 256.000 
Size= 278
95.977   1.84000000e+02 
95.941   2.19000000e+02 
95.905   2.22000000e+02 
95.870   2.14000000e+02 
95.834   2.06000000e+02 
95.798   2.32000000e+02 
95.762   2.44000000e+02 
95.726   2.39000000e+02 
95.690   2.52000000e+02 
95.654   2.31000000e+02 
95.618   2.62000000e+02 
95.582   2.57000000e+02 
95.546   2.65000000e+02 
95.510   2.69000000e+02 
95.474   2.88000000e+02 
95.438   3.00000000e+02 
95.402   2.84000000e+02 
95.366   2.93000000e+02 
95.330   3.06000000e+02 
95.295   3.09000000e+02 
95.259   3.49000000e+02 
95.223   3.52000000e+02 
95.187   3.65000000e+02 
95.151   3.79000000e+02 
95.115   3.62000000e+02 
95.079   3.50000000e+02 
95.043   3.58000000e+02 
95.007   4.29000000e+02 
94.971   4.32000000e+02 
94.935   4.23000000e+02 
94.899   4.32000000e+02 
94.863   4.86000000e+02 
94.827   5.20000000e+02 
94.791   5.39000000e+02 
94.755   5.54000000e+02 
94.720   5.61000000e+02 
94.684   6.02000000e+02 
94.648   6.49000000e+02 
94.612   6.83000000e+02 
94.576   7.22000000e+02 
94.540   6.65000000e+02 
94.504   7.88000000e+02 
94.468   7.90000000e+02 
94.432   8.44000000e+02 
94.396   8.38000000e+02 
94.360   8.80000000e+02 
94.324   9.13000000e+02 
94.288   1.01600000e+03 
94.252   9.58000000e+02 
94.216   1.03600000e+03 
94.180   1.01800000e+03 
94.145   9.94000000e+02 
94.109   1.11300000e+03 
94.073   1.05300000e+03 
94.037   1.12400000e+03 
94.001   1.08400000e+03 
93.965   1.07000000e+03 
93.929   1.01900000e+03 
93.893   1.05000000e+03 
93.857   1.00900000e+03 
93.821   9.30000000e+02 
93.785   8.93000000e+02 
93.749   8.37000000e+02 
93.713   8.56000000e+02 
93.677   7.54000000e+02 
93.641   6.77000000e+02 
93.605   6.52000000e+02 
93.570   5.63000000e+02 
93.534   5.12000000e+02 
93.498   4.44000000e+02 
93.462   4.14000000e+02 
93.426   3.94000000e+02 
93.390   3.77000000e+02 
93.354   3.62000000e+02 
93.318   3.07000000e+02 
93.282   2.95000000e+02 
93.246   2.92000000e+02 
93.210   2.86000000e+02 
93.174   2.53000000e+02 
93.138   2.43000000e+02 
93.102   2.50000000e+02 
93.066   2.43000000e+02 
93.030   2.27000000e+02 
92.995   2.38000000e+02 
92.959   2.12000000e+02 
92.923   2.16000000e+02 
92.887   2.02000000e+02 
92.851   2.10000000e+02 
92.815   2.13000000e+02 
92.779   1.84000000e+02 
92.743   2.09000000e+02 
92.707   2.26000000e+02 
92.671   1.91000000e+02 
92.635   2.32000000e+02 
92.599   2.10000000e+02 
92.563   2.08000000e+02 
92.527   2.16000000e+02 
92.491   1.85000000e+02 
92.455   2.25000000e+02 
92.420   2.21000000e+02 
92.384   2.01000000e+02 
92.348   1.95000000e+02 
92.312   2.19000000e+02 
92.276   2.14000000e+02 
92.240   2.34000000e+02 
92.204   2.10000000e+02 
92.168   2.18000000e+02 
92.132   2.05000000e+02 
92.096   2.32000000e+02 
92.060   2.23000000e+02 
92.024   2.45000000e+02 
91.988   2.38000000e+02 
91.952   2.75000000e+02 
91.916   2.51000000e+02 
91.880   2.82000000e+02 
91.845   2.74000000e+02 
91.809   3.03000000e+02 
91.773   3.02000000e+02 
91.737   2.85000000e+02 
91.701   2.96000000e+02 
91.665   3.31000000e+02 
91.629   3.49000000e+02 
91.593   3.23000000e+02 
91.557   3.57000000e+02 
91.521   3.34000000e+02 
91.485   3.71000000e+02 
91.449   4.35000000e+02 
91.413   4.29000000e+02 
91.377   4.57000000e+02 
91.341   4.70000000e+02 
91.305   4.83000000e+02 
91.270   5.07000000e+02 
91.234   5.32000000e+02 
91.198   5.50000000e+02 
91.162   6.47000000e+02 
91.126   6.20000000e+02 
91.090   6.65000000e+02 
91.054   7.00000000e+02 
91.018   7.18000000e+02 
90.982   7.30000000e+02 
90.946   7.61000000e+02 
90.910   7.89000000e+02 
90.874   8.54000000e+02 
90.838   8.44000000e+02 
90.802   9.68000000e+02 
90.766   9.19000000e+02 
90.730   1.00700000e+03 
90.695   1.04800000e+03 
90.659   1.09900000e+03 
90.623   1.17800000e+03 
90.587   1.19200000e+03 
90.551   1.18200000e+03 
90.515   1.23400000e+03 
90.479   1.29900000e+03 
90.443   1.31600000e+03 
90.407   1.36100000e+03 
90.371   1.34800000e+03 
90.335   1.34900000e+03 
90.299   1.24000000e+03 
90.263   1.21200000e+03 
90.227   1.23600000e+03 
90.191   1.21600000e+03 
90.155   1.07100000e+03 
90.120   1.04300000e+03 
90.084   9.13000000e+02 
90.048   8.09000000e+02 
90.012   7.64000000e+02 
89.976   6.81000000e+02 
89.940   6.42000000e+02 
89.904   5.90000000e+02 
89.868   5.54000000e+02 
89.832   4.69000000e+02 
89.796   4.19000000e+02 
89.760   3.62000000e+02 
89.724   3.23000000e+02 
89.688   3.20000000e+02 
89.652   2.82000000e+02 
89.616   2.73000000e+02 
89.580   2.37000000e+02 
89.545   2.28000000e+02 
89.509   2.01000000e+02 
89.473   2.15000000e+02 
89.437   2.25000000e+02 
89.401   1.61000000e+02 
89.365   1.74000000e+02 
89.329   1.52000000e+02 
89.293   1.57000000e+02 
89.257   1.33000000e+02 
89.221   1.17000000e+02 
89.185   1.48000000e+02 
89.149   1.16000000e+02 
89.113   1.50000000e+02 
89.077   1.02000000e+02 
89.041   1.10000000e+02 
89.005   1.24000000e+02 
88.970   1.22000000e+02 
88.934   1.25000000e+02 
88.898   1.25000000e+02 
88.862   1.25000000e+02 
88.826   1.11000000e+02 
88.790   1.07000000e+02 
88.754   9.70000000e+01 
88.718   1.02000000e+02 
88.682   8.80000000e+01 
88.646   8.70000000e+01 
88.610   1.11000000e+02 
88.574   1.05000000e+02 
88.538   9.40000000e+01 
88.502   8.60000000e+01 
88.466   8.50000000e+01 
88.430   7.70000000e+01 
88.395   1.01000000e+02 
88.359   9.30000000e+01 
88.323   9.10000000e+01 
88.287   9.50000000e+01 
88.251   9.60000000e+01 
88.215   8.70000000e+01 
88.179   9.30000000e+01 
88.143   7.70000000e+01 
88.107   7.70000000e+01 
88.071   7.50000000e+01 
88.035   8.70000000e+01 
87.999   6.60000000e+01 
87.963   8.50000000e+01 
87.927   8.80000000e+01 
87.891   6.20000000e+01 
87.855   1.10000000e+02 
87.820   7.40000000e+01 
87.784   8.80000000e+01 
87.748   9.00000000e+01 
87.712   7.70000000e+01 
87.676   8.30000000e+01 
87.640   8.10000000e+01 
87.604   7.80000000e+01 
87.568   8.20000000e+01 
87.532   6.70000000e+01 
87.496   6.30000000e+01 
87.460   6.90000000e+01 
87.424   9.20000000e+01 
87.388   8.60000000e+01 
87.352   7.60000000e+01 
87.316   6.30000000e+01 
87.280   8.10000000e+01 
87.245   8.60000000e+01 
87.209   6.90000000e+01 
87.173   9.20000000e+01 
87.137   7.70000000e+01 
87.101   7.80000000e+01 
87.065   7.60000000e+01 
87.029   9.60000000e+01 
86.993   6.80000000e+01 
86.957   7.70000000e+01 
86.921   7.90000000e+01 
86.885   7.60000000e+01 
86.849   6.90000000e+01 
86.813   7.90000000e+01 
86.777   7.60000000e+01 
86.741   8.70000000e+01 
86.705   7.90000000e+01 
86.670   8.20000000e+01 
86.634   7.40000000e+01 
86.598   7.80000000e+01 
86.562   5.90000000e+01 
86.526   6.50000000e+01 
86.490   8.30000000e+01 
86.454   7.00000000e+01 
86.418   6.90000000e+01 
86.382   6.40000000e+01 
86.346   7.90000000e+01 
86.310   5.90000000e+01 
86.274   7.30000000e+01 
86.238   8.20000000e+01 
86.202   7.90000000e+01 
86.166   7.20000000e+01 
86.130   7.70000000e+01 
86.095   8.00000000e+01 
86.059   8.40000000e+01 
86.023   7.80000000e+01 

