EXPERIMENT FILE
Version = 2

[ Experiment Parameters ]
Experiment Description= <none> 
Number_of_Regions_in_Experiment= 1 

Original_File_name= C:\alexesca\data\0827_400W_32Deg.xps 
Instrument= HP ESCA West
Date= 08-27-2012
Time=  16:42:15

[ Layer Parameters ]
Layer_Type= XPS

[ Region 1 Parameters ]
Region_Description = Au Dithered Scan Test              
BEcenter(eV) = 91.000000
BEwidth(eV) = 10.000000
BEstep(eV) = 0.035937
Dwell_Time(sec) = 1.000000
N_o_scans = 1  
N_o_Channels = 278  
Scan_mode = 0  (DITHERED)

[ L= 1 R= 1 ]
BEcenter= 91.000  
BEwidth= -9.955  
Excitation= 1486.600
Time_p_channel= 256.000 
Size= 278
95.977   8.30000000e+01 
95.941   7.90000000e+01 
95.905   9.80000000e+01 
95.870   8.10000000e+01 
95.834   9.20000000e+01 
95.798   8.60000000e+01 
95.762   8.80000000e+01 
95.726   1.01000000e+02 
95.690   1.09000000e+02 
95.654   1.03000000e+02 
95.618   8.90000000e+01 
95.582   1.15000000e+02 
95.546   1.33000000e+02 
95.510   1.33000000e+02 
95.474   9.30000000e+01 
95.438   1.24000000e+02 
95.402   1.24000000e+02 
95.366   1.22000000e+02 
95.330   1.46000000e+02 
95.295   1.38000000e+02 
95.259   1.60000000e+02 
95.223   1.39000000e+02 
95.187   1.84000000e+02 
95.151   1.82000000e+02 
95.115   1.47000000e+02 
95.079   1.61000000e+02 
95.043   1.84000000e+02 
95.007   1.89000000e+02 
94.971   2.08000000e+02 
94.935   2.25000000e+02 
94.899   2.38000000e+02 
94.863   2.34000000e+02 
94.827   2.64000000e+02 
94.791   2.56000000e+02 
94.755   2.67000000e+02 
94.720   2.53000000e+02 
94.684   2.49000000e+02 
94.648   2.72000000e+02 
94.612   2.98000000e+02 
94.576   2.96000000e+02 
94.540   3.22000000e+02 
94.504   3.01000000e+02 
94.468   2.75000000e+02 
94.432   3.28000000e+02 
94.396   3.24000000e+02 
94.360   3.19000000e+02 
94.324   3.46000000e+02 
94.288   3.37000000e+02 
94.252   3.31000000e+02 
94.216   3.08000000e+02 
94.180   3.05000000e+02 
94.145   3.18000000e+02 
94.109   3.04000000e+02 
94.073   3.00000000e+02 
94.037   2.86000000e+02 
94.001   2.72000000e+02 
93.965   2.67000000e+02 
93.929   2.36000000e+02 
93.893   2.27000000e+02 
93.857   1.91000000e+02 
93.821   1.97000000e+02 
93.785   1.78000000e+02 
93.749   1.60000000e+02 
93.713   1.48000000e+02 
93.677   1.59000000e+02 
93.641   1.31000000e+02 
93.605   1.17000000e+02 
93.570   1.33000000e+02 
93.534   1.17000000e+02 
93.498   1.12000000e+02 
93.462   9.90000000e+01 
93.426   7.90000000e+01 
93.390   9.50000000e+01 
93.354   7.70000000e+01 
93.318   8.90000000e+01 
93.282   7.20000000e+01 
93.246   8.30000000e+01 
93.210   8.40000000e+01 
93.174   6.50000000e+01 
93.138   7.40000000e+01 
93.102   8.30000000e+01 
93.066   8.60000000e+01 
93.030   7.10000000e+01 
92.995   6.50000000e+01 
92.959   7.60000000e+01 
92.923   7.40000000e+01 
92.887   6.50000000e+01 
92.851   7.50000000e+01 
92.815   7.40000000e+01 
92.779   7.90000000e+01 
92.743   8.20000000e+01 
92.707   6.10000000e+01 
92.671   6.40000000e+01 
92.635   6.10000000e+01 
92.599   7.60000000e+01 
92.563   7.30000000e+01 
92.527   6.10000000e+01 
92.491   8.20000000e+01 
92.455   6.60000000e+01 
92.420   7.50000000e+01 
92.384   8.30000000e+01 
92.348   6.50000000e+01 
92.312   7.30000000e+01 
92.276   8.80000000e+01 
92.240   8.60000000e+01 
92.204   1.02000000e+02 
92.168   9.10000000e+01 
92.132   1.09000000e+02 
92.096   8.30000000e+01 
92.060   8.80000000e+01 
92.024   8.60000000e+01 
91.988   1.02000000e+02 
91.952   1.15000000e+02 
91.916   1.10000000e+02 
91.880   1.30000000e+02 
91.845   1.29000000e+02 
91.809   1.08000000e+02 
91.773   1.18000000e+02 
91.737   1.36000000e+02 
91.701   1.35000000e+02 
91.665   1.57000000e+02 
91.629   1.35000000e+02 
91.593   1.86000000e+02 
91.557   1.84000000e+02 
91.521   1.83000000e+02 
91.485   1.79000000e+02 
91.449   1.66000000e+02 
91.413   2.02000000e+02 
91.377   1.95000000e+02 
91.341   2.20000000e+02 
91.305   2.25000000e+02 
91.270   2.39000000e+02 
91.234   2.22000000e+02 
91.198   2.89000000e+02 
91.162   2.92000000e+02 
91.126   2.62000000e+02 
91.090   3.20000000e+02 
91.054   3.02000000e+02 
91.018   3.66000000e+02 
90.982   3.01000000e+02 
90.946   3.26000000e+02 
90.910   3.47000000e+02 
90.874   3.95000000e+02 
90.838   3.64000000e+02 
90.802   3.79000000e+02 
90.766   3.84000000e+02 
90.730   4.10000000e+02 
90.695   3.76000000e+02 
90.659   3.88000000e+02 
90.623   3.98000000e+02 
90.587   3.89000000e+02 
90.551   3.88000000e+02 
90.515   3.75000000e+02 
90.479   3.70000000e+02 
90.443   3.35000000e+02 
90.407   3.63000000e+02 
90.371   3.32000000e+02 
90.335   3.05000000e+02 
90.299   3.02000000e+02 
90.263   2.73000000e+02 
90.227   2.50000000e+02 
90.191   2.21000000e+02 
90.155   2.17000000e+02 
90.120   1.92000000e+02 
90.084   1.80000000e+02 
90.048   1.67000000e+02 
90.012   1.49000000e+02 
89.976   1.33000000e+02 
89.940   1.29000000e+02 
89.904   1.18000000e+02 
89.868   1.02000000e+02 
89.832   8.30000000e+01 
89.796   8.80000000e+01 
89.760   8.00000000e+01 
89.724   7.60000000e+01 
89.688   8.50000000e+01 
89.652   8.30000000e+01 
89.616   6.90000000e+01 
89.580   6.50000000e+01 
89.545   5.40000000e+01 
89.509   5.90000000e+01 
89.473   4.10000000e+01 
89.437   5.20000000e+01 
89.401   4.60000000e+01 
89.365   4.60000000e+01 
89.329   4.80000000e+01 
89.293   4.60000000e+01 
89.257   3.70000000e+01 
89.221   3.90000000e+01 
89.185   4.90000000e+01 
89.149   3.80000000e+01 
89.113   3.20000000e+01 
89.077   4.80000000e+01 
89.041   4.30000000e+01 
89.005   3.40000000e+01 
88.970   2.90000000e+01 
88.934   2.70000000e+01 
88.898   3.00000000e+01 
88.862   4.40000000e+01 
88.826   3.40000000e+01 
88.790   3.50000000e+01 
88.754   2.40000000e+01 
88.718   3.70000000e+01 
88.682   3.30000000e+01 
88.646   2.80000000e+01 
88.610   2.20000000e+01 
88.574   3.10000000e+01 
88.538   3.30000000e+01 
88.502   3.80000000e+01 
88.466   1.70000000e+01 
88.430   3.80000000e+01 
88.395   2.20000000e+01 
88.359   3.90000000e+01 
88.323   3.30000000e+01 
88.287   3.00000000e+01 
88.251   3.40000000e+01 
88.215   3.20000000e+01 
88.179   3.30000000e+01 
88.143   2.70000000e+01 
88.107   3.10000000e+01 
88.071   3.20000000e+01 
88.035   3.30000000e+01 
87.999   2.80000000e+01 
87.963   3.10000000e+01 
87.927   2.30000000e+01 
87.891   3.50000000e+01 
87.855   3.20000000e+01 
87.820   2.60000000e+01 
87.784   3.50000000e+01 
87.748   2.60000000e+01 
87.712   3.80000000e+01 
87.676   2.90000000e+01 
87.640   2.50000000e+01 
87.604   3.50000000e+01 
87.568   2.00000000e+01 
87.532   2.40000000e+01 
87.496   2.90000000e+01 
87.460   2.50000000e+01 
87.424   2.20000000e+01 
87.388   2.70000000e+01 
87.352   3.30000000e+01 
87.316   2.20000000e+01 
87.280   2.00000000e+01 
87.245   2.30000000e+01 
87.209   2.60000000e+01 
87.173   2.70000000e+01 
87.137   3.10000000e+01 
87.101   2.00000000e+01 
87.065   2.30000000e+01 
87.029   2.90000000e+01 
86.993   3.30000000e+01 
86.957   3.20000000e+01 
86.921   2.30000000e+01 
86.885   2.50000000e+01 
86.849   3.40000000e+01 
86.813   3.10000000e+01 
86.777   2.40000000e+01 
86.741   3.00000000e+01 
86.705   2.80000000e+01 
86.670   2.00000000e+01 
86.634   2.50000000e+01 
86.598   2.00000000e+01 
86.562   2.90000000e+01 
86.526   2.70000000e+01 
86.490   3.30000000e+01 
86.454   3.70000000e+01 
86.418   2.70000000e+01 
86.382   2.70000000e+01 
86.346   2.60000000e+01 
86.310   2.30000000e+01 
86.274   2.60000000e+01 
86.238   2.90000000e+01 
86.202   2.90000000e+01 
86.166   2.90000000e+01 
86.130   2.60000000e+01 
86.095   2.10000000e+01 
86.059   2.60000000e+01 
86.023   3.10000000e+01 

