EXPERIMENT FILE
Version = 2

[ Experiment Parameters ]
Experiment Description= <none> 
Number_of_Regions_in_Experiment= 1 

Original_File_name= C:\alexesca\data\130422 calibration\0422Au4fAngNeg30@+25.xps 
Instrument= HP ESCA West
Date= 04-22-2013
Time=  16:49:33

[ Layer Parameters ]
Layer_Type= XPS

[ Region 1 Parameters ]
Region_Description = Au 4f Dithered 92eV Center 10eV Width
BEcenter(eV) = 92.000000
BEwidth(eV) = 10.000000
BEstep(eV) = 0.035938
Dwell_Time(sec) = 1.000000
N_o_scans = 1  
N_o_Channels = 278  
Scan_mode = 0  (DITHERED)

[ L= 1 R= 1 ]
BEcenter= 92.000  
BEwidth= -9.955  
Excitation= 1486.600
Time_p_channel= 256.000 
Size= 278
96.977   2.70000000e+02 
96.941   2.75000000e+02 
96.905   2.62000000e+02 
96.870   2.33000000e+02 
96.834   2.47000000e+02 
96.798   2.62000000e+02 
96.762   2.76000000e+02 
96.726   2.72000000e+02 
96.690   2.74000000e+02 
96.654   2.85000000e+02 
96.618   2.96000000e+02 
96.582   2.95000000e+02 
96.546   2.90000000e+02 
96.510   2.66000000e+02 
96.474   2.95000000e+02 
96.438   2.80000000e+02 
96.402   3.13000000e+02 
96.366   3.24000000e+02 
96.330   3.78000000e+02 
96.295   3.20000000e+02 
96.259   3.27000000e+02 
96.223   3.21000000e+02 
96.187   3.74000000e+02 
96.151   3.58000000e+02 
96.115   3.83000000e+02 
96.079   3.57000000e+02 
96.043   4.01000000e+02 
96.007   4.13000000e+02 
95.971   4.07000000e+02 
95.935   4.21000000e+02 
95.899   4.40000000e+02 
95.863   4.50000000e+02 
95.827   5.29000000e+02 
95.791   5.53000000e+02 
95.755   5.28000000e+02 
95.720   6.07000000e+02 
95.684   6.26000000e+02 
95.648   6.58000000e+02 
95.612   6.28000000e+02 
95.576   6.36000000e+02 
95.540   7.41000000e+02 
95.504   7.49000000e+02 
95.468   8.43000000e+02 
95.432   8.61000000e+02 
95.396   8.42000000e+02 
95.360   9.66000000e+02 
95.324   1.04500000e+03 
95.288   1.03700000e+03 
95.252   1.09700000e+03 
95.216   1.13600000e+03 
95.180   1.13700000e+03 
95.145   1.20500000e+03 
95.109   1.23600000e+03 
95.073   1.21200000e+03 
95.037   1.22800000e+03 
95.001   1.30600000e+03 
94.965   1.30300000e+03 
94.929   1.30800000e+03 
94.893   1.36300000e+03 
94.857   1.28100000e+03 
94.821   1.25200000e+03 
94.785   1.24800000e+03 
94.749   1.15800000e+03 
94.713   1.08200000e+03 
94.677   9.98000000e+02 
94.641   1.02300000e+03 
94.605   9.26000000e+02 
94.570   7.98000000e+02 
94.534   7.75000000e+02 
94.498   6.94000000e+02 
94.462   6.91000000e+02 
94.426   5.48000000e+02 
94.390   5.00000000e+02 
94.354   4.89000000e+02 
94.318   4.90000000e+02 
94.282   3.91000000e+02 
94.246   4.20000000e+02 
94.210   3.79000000e+02 
94.174   3.54000000e+02 
94.138   3.21000000e+02 
94.102   2.86000000e+02 
94.066   3.25000000e+02 
94.030   2.87000000e+02 
93.995   2.92000000e+02 
93.959   3.00000000e+02 
93.923   2.90000000e+02 
93.887   2.94000000e+02 
93.851   2.65000000e+02 
93.815   2.73000000e+02 
93.779   2.58000000e+02 
93.743   2.90000000e+02 
93.707   2.35000000e+02 
93.671   2.54000000e+02 
93.635   2.59000000e+02 
93.599   2.91000000e+02 
93.563   2.27000000e+02 
93.527   2.60000000e+02 
93.491   2.17000000e+02 
93.455   2.27000000e+02 
93.420   2.41000000e+02 
93.384   2.14000000e+02 
93.348   2.43000000e+02 
93.312   2.48000000e+02 
93.276   2.37000000e+02 
93.240   2.37000000e+02 
93.204   2.22000000e+02 
93.168   2.48000000e+02 
93.132   2.71000000e+02 
93.096   2.67000000e+02 
93.060   2.41000000e+02 
93.024   2.48000000e+02 
92.988   2.65000000e+02 
92.952   2.50000000e+02 
92.916   2.59000000e+02 
92.880   2.68000000e+02 
92.845   2.97000000e+02 
92.809   2.60000000e+02 
92.773   2.85000000e+02 
92.737   2.79000000e+02 
92.701   2.68000000e+02 
92.665   2.88000000e+02 
92.629   3.04000000e+02 
92.593   3.26000000e+02 
92.557   3.09000000e+02 
92.521   2.99000000e+02 
92.485   3.51000000e+02 
92.449   3.70000000e+02 
92.413   4.18000000e+02 
92.377   3.93000000e+02 
92.341   3.84000000e+02 
92.305   4.44000000e+02 
92.270   4.56000000e+02 
92.234   4.39000000e+02 
92.198   5.03000000e+02 
92.162   5.42000000e+02 
92.126   6.15000000e+02 
92.090   5.83000000e+02 
92.054   6.48000000e+02 
92.018   6.74000000e+02 
91.982   6.82000000e+02 
91.946   7.63000000e+02 
91.910   8.40000000e+02 
91.874   8.15000000e+02 
91.838   8.98000000e+02 
91.802   8.87000000e+02 
91.766   1.00000000e+03 
91.730   1.04500000e+03 
91.695   1.05000000e+03 
91.659   1.11100000e+03 
91.623   1.20700000e+03 
91.587   1.27000000e+03 
91.551   1.32900000e+03 
91.515   1.36500000e+03 
91.479   1.36500000e+03 
91.443   1.50500000e+03 
91.407   1.51800000e+03 
91.371   1.57900000e+03 
91.335   1.58900000e+03 
91.299   1.63700000e+03 
91.263   1.54200000e+03 
91.227   1.55800000e+03 
91.191   1.55200000e+03 
91.155   1.52300000e+03 
91.120   1.44800000e+03 
91.084   1.42100000e+03 
91.048   1.30400000e+03 
91.012   1.26100000e+03 
90.976   1.13700000e+03 
90.940   1.09100000e+03 
90.904   9.63000000e+02 
90.868   8.48000000e+02 
90.832   8.04000000e+02 
90.796   6.47000000e+02 
90.760   6.50000000e+02 
90.724   5.53000000e+02 
90.688   4.78000000e+02 
90.652   4.52000000e+02 
90.616   4.50000000e+02 
90.580   3.71000000e+02 
90.545   3.77000000e+02 
90.509   3.11000000e+02 
90.473   2.58000000e+02 
90.437   2.87000000e+02 
90.401   2.47000000e+02 
90.365   2.51000000e+02 
90.329   2.59000000e+02 
90.293   2.07000000e+02 
90.257   2.15000000e+02 
90.221   1.92000000e+02 
90.185   2.09000000e+02 
90.149   2.01000000e+02 
90.113   1.85000000e+02 
90.077   1.90000000e+02 
90.041   1.83000000e+02 
90.005   1.75000000e+02 
89.970   1.47000000e+02 
89.934   1.46000000e+02 
89.898   1.34000000e+02 
89.862   1.73000000e+02 
89.826   1.25000000e+02 
89.790   1.52000000e+02 
89.754   1.47000000e+02 
89.718   1.27000000e+02 
89.682   1.40000000e+02 
89.646   1.40000000e+02 
89.610   1.50000000e+02 
89.574   1.52000000e+02 
89.538   1.51000000e+02 
89.502   1.43000000e+02 
89.466   1.21000000e+02 
89.430   1.17000000e+02 
89.395   1.44000000e+02 
89.359   1.02000000e+02 
89.323   1.24000000e+02 
89.287   1.26000000e+02 
89.251   1.30000000e+02 
89.215   1.49000000e+02 
89.179   1.28000000e+02 
89.143   1.28000000e+02 
89.107   1.31000000e+02 
89.071   1.17000000e+02 
89.035   9.70000000e+01 
88.999   1.22000000e+02 
88.963   1.35000000e+02 
88.927   1.35000000e+02 
88.891   1.17000000e+02 
88.855   1.28000000e+02 
88.820   1.37000000e+02 
88.784   1.18000000e+02 
88.748   1.15000000e+02 
88.712   1.23000000e+02 
88.676   1.16000000e+02 
88.640   1.15000000e+02 
88.604   1.02000000e+02 
88.568   1.43000000e+02 
88.532   1.10000000e+02 
88.496   1.15000000e+02 
88.460   9.70000000e+01 
88.424   1.03000000e+02 
88.388   9.80000000e+01 
88.352   1.03000000e+02 
88.316   9.90000000e+01 
88.280   1.13000000e+02 
88.245   1.05000000e+02 
88.209   1.03000000e+02 
88.173   1.01000000e+02 
88.137   1.08000000e+02 
88.101   1.21000000e+02 
88.065   9.60000000e+01 
88.029   9.90000000e+01 
87.993   1.02000000e+02 
87.957   1.05000000e+02 
87.921   1.08000000e+02 
87.885   9.60000000e+01 
87.849   1.04000000e+02 
87.813   1.00000000e+02 
87.777   1.22000000e+02 
87.741   1.06000000e+02 
87.705   8.40000000e+01 
87.670   1.22000000e+02 
87.634   1.10000000e+02 
87.598   9.90000000e+01 
87.562   1.10000000e+02 
87.526   1.13000000e+02 
87.490   9.50000000e+01 
87.454   9.90000000e+01 
87.418   9.10000000e+01 
87.382   1.00000000e+02 
87.346   9.60000000e+01 
87.310   8.60000000e+01 
87.274   1.01000000e+02 
87.238   8.30000000e+01 
87.202   1.06000000e+02 
87.166   1.01000000e+02 
87.130   1.12000000e+02 
87.095   9.80000000e+01 
87.059   1.02000000e+02 
87.023   1.06000000e+02 

