EXPERIMENT FILE
Version = 2

[ Experiment Parameters ]
Experiment Description= <none> 
Number_of_Regions_in_Experiment= 1 

Original_File_name= C:\alexesca\data\130422 calibration\0422Au4fAngNeg30.xps 
Instrument= HP ESCA West
Date= 04-22-2013
Time=  15:58:12

[ Layer Parameters ]
Layer_Type= XPS

[ Region 1 Parameters ]
Region_Description = Au 4f Dithered 92eV Center 10eV Width
BEcenter(eV) = 92.000000
BEwidth(eV) = 10.000000
BEstep(eV) = 0.035937
Dwell_Time(sec) = 1.000000
N_o_scans = 1  
N_o_Channels = 278  
Scan_mode = 0  (DITHERED)

[ L= 1 R= 1 ]
BEcenter= 92.000  
BEwidth= -9.955  
Excitation= 1486.600
Time_p_channel= 256.000 
Size= 278
96.977   2.28000000e+02 
96.941   2.53000000e+02 
96.905   2.60000000e+02 
96.870   2.52000000e+02 
96.834   2.65000000e+02 
96.798   2.30000000e+02 
96.762   2.68000000e+02 
96.726   2.45000000e+02 
96.690   2.79000000e+02 
96.654   2.61000000e+02 
96.618   2.62000000e+02 
96.582   2.39000000e+02 
96.546   2.80000000e+02 
96.510   2.53000000e+02 
96.474   2.50000000e+02 
96.438   2.92000000e+02 
96.402   2.59000000e+02 
96.366   2.52000000e+02 
96.330   2.73000000e+02 
96.295   2.50000000e+02 
96.259   2.84000000e+02 
96.223   2.72000000e+02 
96.187   3.11000000e+02 
96.151   3.42000000e+02 
96.115   3.46000000e+02 
96.079   3.58000000e+02 
96.043   3.61000000e+02 
96.007   3.60000000e+02 
95.971   3.67000000e+02 
95.935   3.86000000e+02 
95.899   4.22000000e+02 
95.863   3.94000000e+02 
95.827   4.42000000e+02 
95.791   4.52000000e+02 
95.755   4.93000000e+02 
95.720   4.74000000e+02 
95.684   5.26000000e+02 
95.648   5.27000000e+02 
95.612   5.61000000e+02 
95.576   5.56000000e+02 
95.540   6.17000000e+02 
95.504   6.41000000e+02 
95.468   6.95000000e+02 
95.432   6.60000000e+02 
95.396   7.44000000e+02 
95.360   7.42000000e+02 
95.324   8.59000000e+02 
95.288   8.50000000e+02 
95.252   8.72000000e+02 
95.216   9.41000000e+02 
95.180   1.03700000e+03 
95.145   1.02500000e+03 
95.109   1.09000000e+03 
95.073   1.09300000e+03 
95.037   1.18200000e+03 
95.001   1.16900000e+03 
94.965   1.10400000e+03 
94.929   1.23300000e+03 
94.893   1.23300000e+03 
94.857   1.21100000e+03 
94.821   1.13400000e+03 
94.785   1.11000000e+03 
94.749   1.15900000e+03 
94.713   1.13300000e+03 
94.677   1.05200000e+03 
94.641   1.01600000e+03 
94.605   9.55000000e+02 
94.570   9.54000000e+02 
94.534   8.64000000e+02 
94.498   8.00000000e+02 
94.462   7.30000000e+02 
94.426   6.56000000e+02 
94.390   5.71000000e+02 
94.354   5.99000000e+02 
94.318   5.20000000e+02 
94.282   4.45000000e+02 
94.246   4.04000000e+02 
94.210   4.04000000e+02 
94.174   3.77000000e+02 
94.138   3.51000000e+02 
94.102   3.56000000e+02 
94.066   2.92000000e+02 
94.030   2.84000000e+02 
93.995   2.83000000e+02 
93.959   2.54000000e+02 
93.923   2.56000000e+02 
93.887   2.56000000e+02 
93.851   2.41000000e+02 
93.815   2.39000000e+02 
93.779   2.58000000e+02 
93.743   2.54000000e+02 
93.707   2.72000000e+02 
93.671   2.37000000e+02 
93.635   2.06000000e+02 
93.599   2.28000000e+02 
93.563   2.36000000e+02 
93.527   2.26000000e+02 
93.491   1.93000000e+02 
93.455   2.19000000e+02 
93.420   2.63000000e+02 
93.384   2.07000000e+02 
93.348   2.29000000e+02 
93.312   2.35000000e+02 
93.276   2.28000000e+02 
93.240   2.44000000e+02 
93.204   1.93000000e+02 
93.168   2.08000000e+02 
93.132   2.32000000e+02 
93.096   2.29000000e+02 
93.060   2.38000000e+02 
93.024   2.37000000e+02 
92.988   2.24000000e+02 
92.952   2.21000000e+02 
92.916   2.37000000e+02 
92.880   2.20000000e+02 
92.845   2.50000000e+02 
92.809   2.47000000e+02 
92.773   2.48000000e+02 
92.737   2.64000000e+02 
92.701   2.64000000e+02 
92.665   2.90000000e+02 
92.629   2.57000000e+02 
92.593   2.80000000e+02 
92.557   2.93000000e+02 
92.521   2.94000000e+02 
92.485   2.64000000e+02 
92.449   3.48000000e+02 
92.413   3.41000000e+02 
92.377   3.67000000e+02 
92.341   3.62000000e+02 
92.305   3.73000000e+02 
92.270   3.80000000e+02 
92.234   4.16000000e+02 
92.198   4.11000000e+02 
92.162   4.45000000e+02 
92.126   4.71000000e+02 
92.090   4.98000000e+02 
92.054   5.33000000e+02 
92.018   5.28000000e+02 
91.982   5.61000000e+02 
91.946   6.21000000e+02 
91.910   6.12000000e+02 
91.874   6.49000000e+02 
91.838   7.08000000e+02 
91.802   7.29000000e+02 
91.766   7.75000000e+02 
91.730   8.34000000e+02 
91.695   8.87000000e+02 
91.659   9.68000000e+02 
91.623   9.81000000e+02 
91.587   1.05500000e+03 
91.551   1.07400000e+03 
91.515   1.15400000e+03 
91.479   1.26100000e+03 
91.443   1.28700000e+03 
91.407   1.32700000e+03 
91.371   1.36900000e+03 
91.335   1.39400000e+03 
91.299   1.42100000e+03 
91.263   1.44000000e+03 
91.227   1.50100000e+03 
91.191   1.51600000e+03 
91.155   1.45100000e+03 
91.120   1.38700000e+03 
91.084   1.37500000e+03 
91.048   1.39000000e+03 
91.012   1.31600000e+03 
90.976   1.30100000e+03 
90.940   1.16200000e+03 
90.904   1.05400000e+03 
90.868   9.98000000e+02 
90.832   9.10000000e+02 
90.796   8.21000000e+02 
90.760   6.96000000e+02 
90.724   6.42000000e+02 
90.688   5.79000000e+02 
90.652   4.92000000e+02 
90.616   4.78000000e+02 
90.580   4.11000000e+02 
90.545   3.98000000e+02 
90.509   3.36000000e+02 
90.473   3.18000000e+02 
90.437   3.08000000e+02 
90.401   2.87000000e+02 
90.365   2.19000000e+02 
90.329   2.53000000e+02 
90.293   2.21000000e+02 
90.257   1.97000000e+02 
90.221   2.19000000e+02 
90.185   2.26000000e+02 
90.149   1.67000000e+02 
90.113   1.76000000e+02 
90.077   1.85000000e+02 
90.041   1.74000000e+02 
90.005   1.76000000e+02 
89.970   1.65000000e+02 
89.934   1.61000000e+02 
89.898   1.78000000e+02 
89.862   1.55000000e+02 
89.826   1.63000000e+02 
89.790   1.35000000e+02 
89.754   1.39000000e+02 
89.718   1.33000000e+02 
89.682   1.31000000e+02 
89.646   1.28000000e+02 
89.610   1.25000000e+02 
89.574   1.28000000e+02 
89.538   1.11000000e+02 
89.502   1.33000000e+02 
89.466   1.36000000e+02 
89.430   1.43000000e+02 
89.395   1.32000000e+02 
89.359   1.24000000e+02 
89.323   1.47000000e+02 
89.287   1.39000000e+02 
89.251   1.37000000e+02 
89.215   1.44000000e+02 
89.179   1.07000000e+02 
89.143   1.50000000e+02 
89.107   1.35000000e+02 
89.071   1.27000000e+02 
89.035   1.00000000e+02 
88.999   9.30000000e+01 
88.963   1.31000000e+02 
88.927   1.12000000e+02 
88.891   1.12000000e+02 
88.855   9.30000000e+01 
88.820   1.24000000e+02 
88.784   1.16000000e+02 
88.748   1.22000000e+02 
88.712   1.01000000e+02 
88.676   1.15000000e+02 
88.640   1.10000000e+02 
88.604   9.60000000e+01 
88.568   1.12000000e+02 
88.532   1.01000000e+02 
88.496   1.07000000e+02 
88.460   1.10000000e+02 
88.424   1.22000000e+02 
88.388   1.02000000e+02 
88.352   1.21000000e+02 
88.316   1.09000000e+02 
88.280   1.07000000e+02 
88.245   1.11000000e+02 
88.209   9.10000000e+01 
88.173   1.08000000e+02 
88.137   1.09000000e+02 
88.101   1.25000000e+02 
88.065   9.90000000e+01 
88.029   1.16000000e+02 
87.993   8.60000000e+01 
87.957   1.18000000e+02 
87.921   1.05000000e+02 
87.885   8.10000000e+01 
87.849   8.50000000e+01 
87.813   1.04000000e+02 
87.777   1.10000000e+02 
87.741   9.70000000e+01 
87.705   8.80000000e+01 
87.670   8.50000000e+01 
87.634   1.01000000e+02 
87.598   1.29000000e+02 
87.562   1.12000000e+02 
87.526   9.30000000e+01 
87.490   1.02000000e+02 
87.454   1.04000000e+02 
87.418   8.70000000e+01 
87.382   1.01000000e+02 
87.346   1.11000000e+02 
87.310   1.10000000e+02 
87.274   1.08000000e+02 
87.238   1.08000000e+02 
87.202   9.10000000e+01 
87.166   8.70000000e+01 
87.130   1.05000000e+02 
87.095   1.04000000e+02 
87.059   8.40000000e+01 
87.023   1.06000000e+02 

