EXPERIMENT FILE
Version = 2

[ Experiment Parameters ]
Experiment Description= <none> 
Number_of_Regions_in_Experiment= 1 

Original_File_name= C:\alexesca\data\0907_400W_32Deg.xps 
Instrument= HP ESCA West
Date= 09-07-2012
Time=  14:29:25

[ Layer Parameters ]
Layer_Type= XPS

[ Region 1 Parameters ]
Region_Description = Au Dithered Scan Test              
BEcenter(eV) = 91.000000
BEwidth(eV) = 10.000000
BEstep(eV) = 0.035938
Dwell_Time(sec) = 1.000000
N_o_scans = 1  
N_o_Channels = 278  
Scan_mode = 0  (DITHERED)

[ L= 1 R= 1 ]
BEcenter= 91.000  
BEwidth= -9.955  
Excitation= 1486.600
Time_p_channel= 256.000 
Size= 278
95.977   3.76000000e+02 
95.941   3.49000000e+02 
95.905   4.08000000e+02 
95.870   3.75000000e+02 
95.834   3.86000000e+02 
95.798   3.83000000e+02 
95.762   4.02000000e+02 
95.726   3.83000000e+02 
95.690   3.51000000e+02 
95.654   3.70000000e+02 
95.618   3.36000000e+02 
95.582   4.02000000e+02 
95.546   4.19000000e+02 
95.510   3.44000000e+02 
95.474   3.79000000e+02 
95.438   3.68000000e+02 
95.402   3.73000000e+02 
95.366   3.67000000e+02 
95.330   3.75000000e+02 
95.295   3.87000000e+02 
95.259   3.76000000e+02 
95.223   3.64000000e+02 
95.187   3.82000000e+02 
95.151   3.54000000e+02 
95.115   3.41000000e+02 
95.079   3.90000000e+02 
95.043   3.96000000e+02 
95.007   3.71000000e+02 
94.971   3.69000000e+02 
94.935   3.93000000e+02 
94.899   3.44000000e+02 
94.863   3.76000000e+02 
94.827   3.71000000e+02 
94.791   3.73000000e+02 
94.755   3.66000000e+02 
94.720   3.74000000e+02 
94.684   3.86000000e+02 
94.648   3.80000000e+02 
94.612   3.48000000e+02 
94.576   3.11000000e+02 
94.540   3.71000000e+02 
94.504   3.60000000e+02 
94.468   3.79000000e+02 
94.432   3.65000000e+02 
94.396   3.82000000e+02 
94.360   3.28000000e+02 
94.324   3.61000000e+02 
94.288   3.28000000e+02 
94.252   3.62000000e+02 
94.216   3.31000000e+02 
94.180   3.51000000e+02 
94.145   3.83000000e+02 
94.109   3.35000000e+02 
94.073   3.17000000e+02 
94.037   3.56000000e+02 
94.001   3.35000000e+02 
93.965   3.75000000e+02 
93.929   3.49000000e+02 
93.893   3.42000000e+02 
93.857   3.96000000e+02 
93.821   3.74000000e+02 
93.785   3.23000000e+02 
93.749   3.45000000e+02 
93.713   3.92000000e+02 
93.677   3.54000000e+02 
93.641   3.91000000e+02 
93.605   3.38000000e+02 
93.570   3.40000000e+02 
93.534   3.35000000e+02 
93.498   3.37000000e+02 
93.462   3.79000000e+02 
93.426   3.78000000e+02 
93.390   3.55000000e+02 
93.354   3.49000000e+02 
93.318   3.38000000e+02 
93.282   3.12000000e+02 
93.246   3.59000000e+02 
93.210   3.25000000e+02 
93.174   3.47000000e+02 
93.138   3.31000000e+02 
93.102   3.42000000e+02 
93.066   3.43000000e+02 
93.030   3.11000000e+02 
92.995   3.56000000e+02 
92.959   3.38000000e+02 
92.923   3.31000000e+02 
92.887   3.61000000e+02 
92.851   3.12000000e+02 
92.815   3.42000000e+02 
92.779   3.52000000e+02 
92.743   3.05000000e+02 
92.707   3.35000000e+02 
92.671   3.36000000e+02 
92.635   3.31000000e+02 
92.599   3.36000000e+02 
92.563   3.27000000e+02 
92.527   3.50000000e+02 
92.491   3.39000000e+02 
92.455   3.14000000e+02 
92.420   3.23000000e+02 
92.384   3.60000000e+02 
92.348   3.56000000e+02 
92.312   3.36000000e+02 
92.276   3.49000000e+02 
92.240   3.33000000e+02 
92.204   2.99000000e+02 
92.168   3.17000000e+02 
92.132   2.89000000e+02 
92.096   3.14000000e+02 
92.060   3.27000000e+02 
92.024   3.39000000e+02 
91.988   3.64000000e+02 
91.952   2.95000000e+02 
91.916   3.22000000e+02 
91.880   2.92000000e+02 
91.845   3.29000000e+02 
91.809   3.31000000e+02 
91.773   3.25000000e+02 
91.737   3.11000000e+02 
91.701   3.01000000e+02 
91.665   3.12000000e+02 
91.629   3.14000000e+02 
91.593   3.14000000e+02 
91.557   2.97000000e+02 
91.521   3.07000000e+02 
91.485   3.19000000e+02 
91.449   3.03000000e+02 
91.413   3.00000000e+02 
91.377   3.02000000e+02 
91.341   3.50000000e+02 
91.305   3.21000000e+02 
91.270   3.35000000e+02 
91.234   3.13000000e+02 
91.198   3.25000000e+02 
91.162   2.86000000e+02 
91.126   2.87000000e+02 
91.090   2.99000000e+02 
91.054   3.28000000e+02 
91.018   3.10000000e+02 
90.982   3.33000000e+02 
90.946   3.14000000e+02 
90.910   2.93000000e+02 
90.874   2.78000000e+02 
90.838   3.18000000e+02 
90.802   2.96000000e+02 
90.766   2.99000000e+02 
90.730   3.01000000e+02 
90.695   2.77000000e+02 
90.659   2.90000000e+02 
90.623   3.17000000e+02 
90.587   2.89000000e+02 
90.551   2.98000000e+02 
90.515   2.90000000e+02 
90.479   3.16000000e+02 
90.443   3.05000000e+02 
90.407   2.79000000e+02 
90.371   3.12000000e+02 
90.335   2.79000000e+02 
90.299   2.89000000e+02 
90.263   2.87000000e+02 
90.227   2.90000000e+02 
90.191   2.76000000e+02 
90.155   2.63000000e+02 
90.120   2.99000000e+02 
90.084   2.85000000e+02 
90.048   3.17000000e+02 
90.012   2.80000000e+02 
89.976   3.06000000e+02 
89.940   2.97000000e+02 
89.904   3.00000000e+02 
89.868   2.66000000e+02 
89.832   2.75000000e+02 
89.796   2.97000000e+02 
89.760   2.79000000e+02 
89.724   3.19000000e+02 
89.688   2.90000000e+02 
89.652   2.74000000e+02 
89.616   2.83000000e+02 
89.580   2.95000000e+02 
89.545   2.79000000e+02 
89.509   2.65000000e+02 
89.473   2.91000000e+02 
89.437   2.73000000e+02 
89.401   2.67000000e+02 
89.365   2.64000000e+02 
89.329   2.73000000e+02 
89.293   2.72000000e+02 
89.257   2.58000000e+02 
89.221   2.96000000e+02 
89.185   2.68000000e+02 
89.149   2.82000000e+02 
89.113   2.79000000e+02 
89.077   2.61000000e+02 
89.041   2.63000000e+02 
89.005   2.61000000e+02 
88.970   2.54000000e+02 
88.934   2.54000000e+02 
88.898   2.51000000e+02 
88.862   2.74000000e+02 
88.826   2.60000000e+02 
88.790   2.78000000e+02 
88.754   2.73000000e+02 
88.718   2.68000000e+02 
88.682   2.57000000e+02 
88.646   2.77000000e+02 
88.610   2.70000000e+02 
88.574   2.64000000e+02 
88.538   2.64000000e+02 
88.502   2.59000000e+02 
88.466   2.57000000e+02 
88.430   2.54000000e+02 
88.395   2.89000000e+02 
88.359   2.54000000e+02 
88.323   2.39000000e+02 
88.287   2.57000000e+02 
88.251   2.39000000e+02 
88.215   2.34000000e+02 
88.179   2.69000000e+02 
88.143   2.23000000e+02 
88.107   2.57000000e+02 
88.071   2.36000000e+02 
88.035   2.60000000e+02 
87.999   2.57000000e+02 
87.963   2.31000000e+02 
87.927   2.35000000e+02 
87.891   2.38000000e+02 
87.855   2.23000000e+02 
87.820   2.35000000e+02 
87.784   2.22000000e+02 
87.748   2.70000000e+02 
87.712   2.25000000e+02 
87.676   2.45000000e+02 
87.640   2.30000000e+02 
87.604   2.22000000e+02 
87.568   2.48000000e+02 
87.532   2.62000000e+02 
87.496   2.40000000e+02 
87.460   2.55000000e+02 
87.424   2.10000000e+02 
87.388   2.10000000e+02 
87.352   2.47000000e+02 
87.316   2.36000000e+02 
87.280   2.32000000e+02 
87.245   2.44000000e+02 
87.209   2.11000000e+02 
87.173   2.42000000e+02 
87.137   2.28000000e+02 
87.101   2.27000000e+02 
87.065   2.29000000e+02 
87.029   2.47000000e+02 
86.993   2.55000000e+02 
86.957   2.30000000e+02 
86.921   2.39000000e+02 
86.885   2.17000000e+02 
86.849   2.09000000e+02 
86.813   2.35000000e+02 
86.777   2.38000000e+02 
86.741   2.24000000e+02 
86.705   2.37000000e+02 
86.670   2.20000000e+02 
86.634   2.43000000e+02 
86.598   2.26000000e+02 
86.562   2.35000000e+02 
86.526   2.34000000e+02 
86.490   2.22000000e+02 
86.454   2.26000000e+02 
86.418   2.05000000e+02 
86.382   2.08000000e+02 
86.346   2.17000000e+02 
86.310   2.23000000e+02 
86.274   2.33000000e+02 
86.238   2.29000000e+02 
86.202   2.10000000e+02 
86.166   2.44000000e+02 
86.130   2.29000000e+02 
86.095   2.36000000e+02 
86.059   2.29000000e+02 
86.023   2.20000000e+02 

