EXPERIMENT FILE
Version = 2

[ Experiment Parameters ]
Experiment Description= <none> 
Number_of_Regions_in_Experiment= 1 

Original_File_name= c:\alexesca\data\detector\sample2.xps 
Instrument= HP ESCA West
Date= 01-22-2006
Time=  15:51:27

[ Layer Parameters ]
Layer_Type= XPS

[ Region 1 Parameters ]
Region_Description = Nsurvey                            
BEcenter(eV) = 600.000000
BEwidth(eV) = 1200.000000
BEstep(eV) = 1.006250
Dwell_Time(sec) = 0.250000
N_o_scans = 2  
N_o_Channels = 1193  
Scan_mode = 0  (DITHERED)

[ L= 1 R= 1 ]
BEcenter= 600.000 
BEwidth= -1199.450
Excitation= 1486.600
Time_p_channel= 4.571   
Size= 1193
1199.725 2.43000000e+02 
1198.719 2.29000000e+02 
1197.713 1.91000000e+02 
1196.706 2.00000000e+02 
1195.700 1.97000000e+02 
1194.694 2.36000000e+02 
1193.688 2.08000000e+02 
1192.681 1.71000000e+02 
1191.675 2.00000000e+02 
1190.669 2.01000000e+02 
1189.663 1.98000000e+02 
1188.656 1.81000000e+02 
1187.650 1.92000000e+02 
1186.644 2.14000000e+02 
1185.638 1.95000000e+02 
1184.631 2.00000000e+02 
1183.625 2.26000000e+02 
1182.619 1.99000000e+02 
1181.613 2.25000000e+02 
1180.606 2.17000000e+02 
1179.600 2.10000000e+02 
1178.594 2.03000000e+02 
1177.588 2.00000000e+02 
1176.581 1.95000000e+02 
1175.575 2.25000000e+02 
1174.569 1.99000000e+02 
1173.563 2.15000000e+02 
1172.556 1.89000000e+02 
1171.550 2.01000000e+02 
1170.544 2.06000000e+02 
1169.538 2.01000000e+02 
1168.531 1.88000000e+02 
1167.525 1.93000000e+02 
1166.519 1.87000000e+02 
1165.513 2.34000000e+02 
1164.506 2.06000000e+02 
1163.500 1.70000000e+02 
1162.494 2.08000000e+02 
1161.488 1.97000000e+02 
1160.481 2.24000000e+02 
1159.475 2.09000000e+02 
1158.469 2.00000000e+02 
1157.463 2.40000000e+02 
1156.456 2.02000000e+02 
1155.450 1.79000000e+02 
1154.444 2.01000000e+02 
1153.438 2.03000000e+02 
1152.431 2.05000000e+02 
1151.425 2.13000000e+02 
1150.419 1.98000000e+02 
1149.413 2.07000000e+02 
1148.406 2.06000000e+02 
1147.400 1.89000000e+02 
1146.394 2.02000000e+02 
1145.388 1.92000000e+02 
1144.381 2.51000000e+02 
1143.375 1.77000000e+02 
1142.369 2.12000000e+02 
1141.363 2.09000000e+02 
1140.356 1.92000000e+02 
1139.350 2.12000000e+02 
1138.344 2.10000000e+02 
1137.338 2.02000000e+02 
1136.331 1.80000000e+02 
1135.325 2.30000000e+02 
1134.319 2.03000000e+02 
1133.313 2.21000000e+02 
1132.306 1.70000000e+02 
1131.300 2.00000000e+02 
1130.294 2.11000000e+02 
1129.288 1.76000000e+02 
1128.281 2.14000000e+02 
1127.275 2.26000000e+02 
1126.269 2.08000000e+02 
1125.263 1.94000000e+02 
1124.256 1.99000000e+02 
1123.250 2.09000000e+02 
1122.244 1.99000000e+02 
1121.238 2.09000000e+02 
1120.231 2.09000000e+02 
1119.225 2.23000000e+02 
1118.219 2.05000000e+02 
1117.213 2.06000000e+02 
1116.206 2.20000000e+02 
1115.200 2.05000000e+02 
1114.194 2.03000000e+02 
1113.188 1.86000000e+02 
1112.181 2.07000000e+02 
1111.175 2.10000000e+02 
1110.169 1.94000000e+02 
1109.163 2.05000000e+02 
1108.156 2.11000000e+02 
1107.150 2.24000000e+02 
1106.144 2.12000000e+02 
1105.138 2.07000000e+02 
1104.131 2.31000000e+02 
1103.125 2.17000000e+02 
1102.119 1.93000000e+02 
1101.113 2.35000000e+02 
1100.106 2.02000000e+02 
1099.100 1.93000000e+02 
1098.094 2.36000000e+02 
1097.088 2.07000000e+02 
1096.081 2.02000000e+02 
1095.075 1.88000000e+02 
1094.069 2.30000000e+02 
1093.063 2.22000000e+02 
1092.056 2.00000000e+02 
1091.050 2.36000000e+02 
1090.044 2.02000000e+02 
1089.038 1.96000000e+02 
1088.031 1.89000000e+02 
1087.025 1.71000000e+02 
1086.019 1.89000000e+02 
1085.013 2.04000000e+02 
1084.006 1.90000000e+02 
1083.000 2.13000000e+02 
1081.994 1.85000000e+02 
1080.988 2.06000000e+02 
1079.981 2.08000000e+02 
1078.975 2.61000000e+02 
1077.969 3.37000000e+02 
1076.963 3.42000000e+02 
1075.956 2.25000000e+02 
1074.950 1.84000000e+02 
1073.944 2.00000000e+02 
1072.938 1.95000000e+02 
1071.931 1.90000000e+02 
1070.925 1.94000000e+02 
1069.919 2.02000000e+02 
1068.913 1.63000000e+02 
1067.906 1.90000000e+02 
1066.900 1.98000000e+02 
1065.894 2.01000000e+02 
1064.888 1.86000000e+02 
1063.881 1.96000000e+02 
1062.875 2.00000000e+02 
1061.869 1.85000000e+02 
1060.863 1.86000000e+02 
1059.856 1.80000000e+02 
1058.850 1.97000000e+02 
1057.844 1.58000000e+02 
1056.838 1.99000000e+02 
1055.831 2.04000000e+02 
1054.825 1.90000000e+02 
1053.819 1.86000000e+02 
1052.813 2.15000000e+02 
1051.806 1.66000000e+02 
1050.800 1.83000000e+02 
1049.794 1.72000000e+02 
1048.788 1.95000000e+02 
1047.781 1.72000000e+02 
1046.775 1.91000000e+02 
1045.769 1.72000000e+02 
1044.763 1.75000000e+02 
1043.756 2.06000000e+02 
1042.750 1.91000000e+02 
1041.744 1.64000000e+02 
1040.738 1.85000000e+02 
1039.731 2.20000000e+02 
1038.725 2.04000000e+02 
1037.719 2.03000000e+02 
1036.713 1.84000000e+02 
1035.706 1.96000000e+02 
1034.700 1.76000000e+02 
1033.694 1.70000000e+02 
1032.688 1.89000000e+02 
1031.681 1.83000000e+02 
1030.675 1.76000000e+02 
1029.669 2.03000000e+02 
1028.663 1.97000000e+02 
1027.656 1.93000000e+02 
1026.650 2.03000000e+02 
1025.644 1.96000000e+02 
1024.638 1.83000000e+02 
1023.631 1.90000000e+02 
1022.625 1.97000000e+02 
1021.619 1.63000000e+02 
1020.613 2.24000000e+02 
1019.606 2.01000000e+02 
1018.600 1.71000000e+02 
1017.594 1.77000000e+02 
1016.588 2.15000000e+02 
1015.581 1.72000000e+02 
1014.575 2.01000000e+02 
1013.569 1.85000000e+02 
1012.563 1.91000000e+02 
1011.556 1.90000000e+02 
1010.550 1.71000000e+02 
1009.544 1.88000000e+02 
1008.538 2.08000000e+02 
1007.531 2.05000000e+02 
1006.525 1.80000000e+02 
1005.519 1.91000000e+02 
1004.513 1.78000000e+02 
1003.506 2.02000000e+02 
1002.500 2.00000000e+02 
1001.494 1.80000000e+02 
1000.488 2.06000000e+02 
999.481  1.89000000e+02 
998.475  1.90000000e+02 
997.469  1.67000000e+02 
996.463  1.89000000e+02 
995.456  1.61000000e+02 
994.450  1.74000000e+02 
993.444  1.63000000e+02 
992.438  1.65000000e+02 
991.431  1.83000000e+02 
990.425  1.75000000e+02 
989.419  2.05000000e+02 
988.413  1.91000000e+02 
987.406  1.87000000e+02 
986.400  1.76000000e+02 
985.394  2.11000000e+02 
984.388  1.99000000e+02 
983.381  1.90000000e+02 
982.375  1.85000000e+02 
981.369  1.86000000e+02 
980.363  2.12000000e+02 
979.356  1.77000000e+02 
978.350  1.72000000e+02 
977.344  1.67000000e+02 
976.338  1.91000000e+02 
975.331  1.36000000e+02 
974.325  1.48000000e+02 
973.319  1.47000000e+02 
972.313  1.40000000e+02 
971.306  1.35000000e+02 
970.300  1.38000000e+02 
969.294  1.20000000e+02 
968.288  1.36000000e+02 
967.281  1.35000000e+02 
966.275  1.66000000e+02 
965.269  1.36000000e+02 
964.263  1.53000000e+02 
963.256  1.57000000e+02 
962.250  1.31000000e+02 
961.244  1.41000000e+02 
960.238  1.34000000e+02 
959.231  1.20000000e+02 
958.225  1.41000000e+02 
957.219  1.43000000e+02 
956.213  1.57000000e+02 
955.206  1.42000000e+02 
954.200  1.44000000e+02 
953.194  1.31000000e+02 
952.188  1.49000000e+02 
951.181  1.69000000e+02 
950.175  1.34000000e+02 
949.169  1.31000000e+02 
948.163  1.48000000e+02 
947.156  1.38000000e+02 
946.150  1.26000000e+02 
945.144  1.38000000e+02 
944.138  1.19000000e+02 
943.131  1.17000000e+02 
942.125  1.52000000e+02 
941.119  1.33000000e+02 
940.113  1.44000000e+02 
939.106  1.37000000e+02 
938.100  1.68000000e+02 
937.094  1.35000000e+02 
936.088  1.49000000e+02 
935.081  1.38000000e+02 
934.075  1.09000000e+02 
933.069  1.35000000e+02 
932.063  1.47000000e+02 
931.056  1.31000000e+02 
930.050  1.46000000e+02 
929.044  1.41000000e+02 
928.038  1.25000000e+02 
927.031  1.32000000e+02 
926.025  1.46000000e+02 
925.019  1.19000000e+02 
924.013  1.31000000e+02 
923.006  1.54000000e+02 
922.000  1.44000000e+02 
920.994  1.36000000e+02 
919.988  1.48000000e+02 
918.981  1.41000000e+02 
917.975  1.38000000e+02 
916.969  1.20000000e+02 
915.963  1.22000000e+02 
914.956  1.26000000e+02 
913.950  1.32000000e+02 
912.944  1.48000000e+02 
911.938  1.32000000e+02 
910.931  1.35000000e+02 
909.925  1.23000000e+02 
908.919  1.36000000e+02 
907.913  1.33000000e+02 
906.906  1.23000000e+02 
905.900  1.51000000e+02 
904.894  1.25000000e+02 
903.888  1.31000000e+02 
902.881  1.27000000e+02 
901.875  1.02000000e+02 
900.869  1.10000000e+02 
899.863  1.05000000e+02 
898.856  1.27000000e+02 
897.850  1.44000000e+02 
896.844  1.31000000e+02 
895.838  1.19000000e+02 
894.831  1.18000000e+02 
893.825  1.31000000e+02 
892.819  1.31000000e+02 
891.813  1.20000000e+02 
890.806  1.35000000e+02 
889.800  1.15000000e+02 
888.794  1.07000000e+02 
887.788  1.17000000e+02 
886.781  1.26000000e+02 
885.775  1.23000000e+02 
884.769  1.16000000e+02 
883.763  1.15000000e+02 
882.756  1.17000000e+02 
881.750  1.25000000e+02 
880.744  1.18000000e+02 
879.738  1.07000000e+02 
878.731  1.22000000e+02 
877.725  1.28000000e+02 
876.719  1.03000000e+02 
875.713  1.25000000e+02 
874.706  1.16000000e+02 
873.700  1.17000000e+02 
872.694  1.15000000e+02 
871.688  1.29000000e+02 
870.681  1.22000000e+02 
869.675  1.00000000e+02 
868.669  1.42000000e+02 
867.663  1.50000000e+02 
866.656  1.18000000e+02 
865.650  1.03000000e+02 
864.644  1.19000000e+02 
863.638  1.09000000e+02 
862.631  1.10000000e+02 
861.625  1.17000000e+02 
860.619  1.11000000e+02 
859.613  1.28000000e+02 
858.606  1.29000000e+02 
857.600  1.13000000e+02 
856.594  1.17000000e+02 
855.588  1.22000000e+02 
854.581  1.09000000e+02 
853.575  1.29000000e+02 
852.569  1.31000000e+02 
851.563  1.31000000e+02 
850.556  9.90000000e+01 
849.550  1.11000000e+02 
848.544  1.11000000e+02 
847.538  1.03000000e+02 
846.531  1.00000000e+02 
845.525  1.03000000e+02 
844.519  1.31000000e+02 
843.513  1.14000000e+02 
842.506  1.18000000e+02 
841.500  1.16000000e+02 
840.494  1.12000000e+02 
839.488  1.04000000e+02 
838.481  1.20000000e+02 
837.475  1.33000000e+02 
836.469  1.19000000e+02 
835.463  9.90000000e+01 
834.456  1.07000000e+02 
833.450  1.22000000e+02 
832.444  1.21000000e+02 
831.438  9.80000000e+01 
830.431  9.30000000e+01 
829.425  1.12000000e+02 
828.419  1.13000000e+02 
827.413  1.19000000e+02 
826.406  8.60000000e+01 
825.400  1.22000000e+02 
824.394  1.31000000e+02 
823.388  1.19000000e+02 
822.381  1.31000000e+02 
821.375  1.26000000e+02 
820.369  1.16000000e+02 
819.363  1.11000000e+02 
818.356  1.19000000e+02 
817.350  9.60000000e+01 
816.344  1.20000000e+02 
815.338  1.41000000e+02 
814.331  9.90000000e+01 
813.325  1.21000000e+02 
812.319  1.18000000e+02 
811.313  1.04000000e+02 
810.306  1.23000000e+02 
809.300  1.30000000e+02 
808.294  9.20000000e+01 
807.288  1.21000000e+02 
806.281  1.11000000e+02 
805.275  1.10000000e+02 
804.269  1.11000000e+02 
803.263  1.13000000e+02 
802.256  1.03000000e+02 
801.250  1.08000000e+02 
800.244  1.31000000e+02 
799.238  1.00000000e+02 
798.231  1.20000000e+02 
797.225  1.20000000e+02 
796.219  1.20000000e+02 
795.213  1.04000000e+02 
794.206  1.06000000e+02 
793.200  1.07000000e+02 
792.194  1.22000000e+02 
791.188  1.08000000e+02 
790.181  1.39000000e+02 
789.175  1.12000000e+02 
788.169  1.09000000e+02 
787.163  1.22000000e+02 
786.156  1.02000000e+02 
785.150  1.21000000e+02 
784.144  1.08000000e+02 
783.138  1.02000000e+02 
782.131  9.80000000e+01 
781.125  1.28000000e+02 
780.119  1.25000000e+02 
779.113  1.05000000e+02 
778.106  1.08000000e+02 
777.100  1.10000000e+02 
776.094  1.08000000e+02 
775.088  1.20000000e+02 
774.081  9.80000000e+01 
773.075  1.09000000e+02 
772.069  1.10000000e+02 
771.063  1.10000000e+02 
770.056  1.25000000e+02 
769.050  9.00000000e+01 
768.044  1.18000000e+02 
767.038  1.05000000e+02 
766.031  1.01000000e+02 
765.025  1.04000000e+02 
764.019  1.19000000e+02 
763.013  1.29000000e+02 
762.006  1.24000000e+02 
761.000  1.08000000e+02 
759.994  1.00000000e+02 
758.988  1.15000000e+02 
757.981  9.70000000e+01 
756.975  9.50000000e+01 
755.969  1.13000000e+02 
754.963  1.02000000e+02 
753.956  1.16000000e+02 
752.950  9.60000000e+01 
751.944  1.13000000e+02 
750.938  9.90000000e+01 
749.931  1.07000000e+02 
748.925  1.12000000e+02 
747.919  1.22000000e+02 
746.913  9.30000000e+01 
745.906  1.11000000e+02 
744.900  9.00000000e+01 
743.894  8.40000000e+01 
742.888  1.27000000e+02 
741.881  1.10000000e+02 
740.875  1.05000000e+02 
739.869  8.50000000e+01 
738.863  1.04000000e+02 
737.856  9.10000000e+01 
736.850  1.02000000e+02 
735.844  9.70000000e+01 
734.838  1.02000000e+02 
733.831  1.09000000e+02 
732.825  1.20000000e+02 
731.819  1.06000000e+02 
730.813  1.04000000e+02 
729.806  1.11000000e+02 
728.800  1.16000000e+02 
727.794  1.00000000e+02 
726.788  1.00000000e+02 
725.781  1.14000000e+02 
724.775  1.03000000e+02 
723.769  1.15000000e+02 
722.763  1.15000000e+02 
721.756  9.10000000e+01 
720.750  1.12000000e+02 
719.744  1.07000000e+02 
718.738  1.10000000e+02 
717.731  1.21000000e+02 
716.725  1.14000000e+02 
715.719  1.02000000e+02 
714.713  1.00000000e+02 
713.706  1.27000000e+02 
712.700  1.01000000e+02 
711.694  1.17000000e+02 
710.688  1.23000000e+02 
709.681  1.01000000e+02 
708.675  9.30000000e+01 
707.669  1.05000000e+02 
706.663  1.19000000e+02 
705.656  1.04000000e+02 
704.650  9.20000000e+01 
703.644  8.80000000e+01 
702.638  9.90000000e+01 
701.631  1.03000000e+02 
700.625  1.13000000e+02 
699.619  1.03000000e+02 
698.613  9.30000000e+01 
697.606  9.30000000e+01 
696.600  9.10000000e+01 
695.594  9.60000000e+01 
694.588  1.18000000e+02 
693.581  1.19000000e+02 
692.575  1.03000000e+02 
691.569  1.08000000e+02 
690.563  8.60000000e+01 
689.556  1.18000000e+02 
688.550  1.08000000e+02 
687.544  1.26000000e+02 
686.538  1.01000000e+02 
685.531  8.80000000e+01 
684.525  9.30000000e+01 
683.519  8.60000000e+01 
682.513  9.20000000e+01 
681.506  1.02000000e+02 
680.500  8.80000000e+01 
679.494  8.80000000e+01 
678.488  9.50000000e+01 
677.481  1.21000000e+02 
676.475  7.70000000e+01 
675.469  8.60000000e+01 
674.463  8.90000000e+01 
673.456  1.08000000e+02 
672.450  8.50000000e+01 
671.444  9.30000000e+01 
670.438  1.06000000e+02 
669.431  1.13000000e+02 
668.425  1.17000000e+02 
667.419  1.02000000e+02 
666.413  9.00000000e+01 
665.406  9.10000000e+01 
664.400  9.80000000e+01 
663.394  1.09000000e+02 
662.388  9.30000000e+01 
661.381  1.04000000e+02 
660.375  1.10000000e+02 
659.369  1.10000000e+02 
658.363  1.03000000e+02 
657.356  1.09000000e+02 
656.350  1.05000000e+02 
655.344  1.24000000e+02 
654.338  1.15000000e+02 
653.331  1.11000000e+02 
652.325  1.03000000e+02 
651.319  1.26000000e+02 
650.313  1.03000000e+02 
649.306  1.15000000e+02 
648.300  1.00000000e+02 
647.294  1.20000000e+02 
646.288  9.20000000e+01 
645.281  9.90000000e+01 
644.275  7.70000000e+01 
643.269  7.20000000e+01 
642.263  1.07000000e+02 
641.256  7.80000000e+01 
640.250  1.08000000e+02 
639.244  9.20000000e+01 
638.238  9.70000000e+01 
637.231  9.00000000e+01 
636.225  9.00000000e+01 
635.219  7.90000000e+01 
634.213  9.60000000e+01 
633.206  9.50000000e+01 
632.200  7.80000000e+01 
631.194  9.30000000e+01 
630.188  1.01000000e+02 
629.181  9.80000000e+01 
628.175  9.60000000e+01 
627.169  1.00000000e+02 
626.163  1.11000000e+02 
625.156  1.01000000e+02 
624.150  1.12000000e+02 
623.144  1.06000000e+02 
622.138  8.60000000e+01 
621.131  8.80000000e+01 
620.125  1.00000000e+02 
619.119  1.01000000e+02 
618.113  1.16000000e+02 
617.106  9.40000000e+01 
616.100  1.01000000e+02 
615.094  8.70000000e+01 
614.088  9.60000000e+01 
613.081  9.50000000e+01 
612.075  8.80000000e+01 
611.069  1.11000000e+02 
610.062  8.50000000e+01 
609.056  7.70000000e+01 
608.050  7.60000000e+01 
607.044  1.06000000e+02 
606.038  7.60000000e+01 
605.031  9.90000000e+01 
604.025  1.00000000e+02 
603.019  9.60000000e+01 
602.013  9.20000000e+01 
601.006  9.50000000e+01 
600.000  9.80000000e+01 
598.994  8.50000000e+01 
597.988  9.30000000e+01 
596.981  9.30000000e+01 
595.975  9.30000000e+01 
594.969  1.06000000e+02 
593.963  9.30000000e+01 
592.956  1.17000000e+02 
591.950  9.40000000e+01 
590.944  1.06000000e+02 
589.938  1.01000000e+02 
588.931  8.80000000e+01 
587.925  1.04000000e+02 
586.919  1.04000000e+02 
585.913  9.70000000e+01 
584.906  9.40000000e+01 
583.900  8.20000000e+01 
582.894  8.50000000e+01 
581.888  8.70000000e+01 
580.881  8.30000000e+01 
579.875  9.00000000e+01 
578.869  9.20000000e+01 
577.863  8.50000000e+01 
576.856  8.30000000e+01 
575.850  1.00000000e+02 
574.844  9.10000000e+01 
573.838  9.80000000e+01 
572.831  1.00000000e+02 
571.825  1.01000000e+02 
570.819  1.20000000e+02 
569.812  9.60000000e+01 
568.806  8.40000000e+01 
567.800  9.80000000e+01 
566.794  9.90000000e+01 
565.788  1.12000000e+02 
564.781  1.02000000e+02 
563.775  1.01000000e+02 
562.769  8.50000000e+01 
561.763  1.14000000e+02 
560.756  9.90000000e+01 
559.750  9.00000000e+01 
558.744  8.70000000e+01 
557.738  9.90000000e+01 
556.731  1.04000000e+02 
555.725  7.60000000e+01 
554.719  8.60000000e+01 
553.713  7.60000000e+01 
552.706  1.00000000e+02 
551.700  7.40000000e+01 
550.694  7.80000000e+01 
549.688  9.50000000e+01 
548.681  7.90000000e+01 
547.675  9.40000000e+01 
546.669  6.90000000e+01 
545.663  8.10000000e+01 
544.656  6.30000000e+01 
543.650  7.30000000e+01 
542.644  7.70000000e+01 
541.638  8.20000000e+01 
540.631  7.20000000e+01 
539.625  1.10000000e+02 
538.619  2.02000000e+02 
537.613  2.84000000e+02 
536.606  2.77000000e+02 
535.600  1.37000000e+02 
534.594  6.50000000e+01 
533.587  7.20000000e+01 
532.581  7.40000000e+01 
531.575  6.20000000e+01 
530.569  5.40000000e+01 
529.562  4.50000000e+01 
528.556  6.70000000e+01 
527.550  5.50000000e+01 
526.544  5.90000000e+01 
525.538  5.20000000e+01 
524.531  4.30000000e+01 
523.525  4.10000000e+01 
522.519  5.00000000e+01 
521.513  6.00000000e+01 
520.506  5.30000000e+01 
519.500  4.80000000e+01 
518.494  5.00000000e+01 
517.488  4.50000000e+01 
516.481  5.50000000e+01 
515.475  5.60000000e+01 
514.469  4.60000000e+01 
513.462  5.40000000e+01 
512.456  3.90000000e+01 
511.450  5.10000000e+01 
510.444  4.50000000e+01 
509.438  4.50000000e+01 
508.431  7.00000000e+01 
507.425  6.40000000e+01 
506.419  5.10000000e+01 
505.413  5.50000000e+01 
504.406  8.00000000e+01 
503.400  9.50000000e+01 
502.394  1.39000000e+02 
501.388  1.03000000e+02 
500.381  3.60000000e+01 
499.375  4.20000000e+01 
498.369  3.00000000e+01 
497.363  3.30000000e+01 
496.356  3.70000000e+01 
495.350  2.90000000e+01 
494.344  2.90000000e+01 
493.338  3.80000000e+01 
492.331  3.10000000e+01 
491.325  3.20000000e+01 
490.319  3.40000000e+01 
489.312  4.20000000e+01 
488.306  4.20000000e+01 
487.300  3.50000000e+01 
486.294  4.30000000e+01 
485.288  3.90000000e+01 
484.281  2.40000000e+01 
483.275  3.40000000e+01 
482.269  3.60000000e+01 
481.262  3.50000000e+01 
480.256  3.70000000e+01 
479.250  2.30000000e+01 
478.244  3.80000000e+01 
477.238  3.20000000e+01 
476.231  4.90000000e+01 
475.225  2.80000000e+01 
474.219  4.40000000e+01 
473.213  4.30000000e+01 
472.206  3.20000000e+01 
471.200  3.40000000e+01 
470.194  3.50000000e+01 
469.188  4.00000000e+01 
468.181  3.00000000e+01 
467.175  2.70000000e+01 
466.169  3.80000000e+01 
465.163  3.10000000e+01 
464.156  4.10000000e+01 
463.150  3.60000000e+01 
462.144  3.30000000e+01 
461.137  3.70000000e+01 
460.131  3.20000000e+01 
459.125  2.70000000e+01 
458.119  2.80000000e+01 
457.113  4.70000000e+01 
456.106  3.40000000e+01 
455.100  2.40000000e+01 
454.094  3.10000000e+01 
453.087  3.10000000e+01 
452.081  2.80000000e+01 
451.075  3.50000000e+01 
450.069  3.60000000e+01 
449.062  3.80000000e+01 
448.056  3.70000000e+01 
447.050  4.00000000e+01 
446.044  4.30000000e+01 
445.038  4.00000000e+01 
444.031  3.30000000e+01 
443.025  4.50000000e+01 
442.019  5.10000000e+01 
441.012  3.70000000e+01 
440.006  4.30000000e+01 
439.000  2.90000000e+01 
437.994  2.90000000e+01 
436.988  3.10000000e+01 
435.981  3.20000000e+01 
434.975  3.40000000e+01 
433.969  2.90000000e+01 
432.962  3.20000000e+01 
431.956  2.80000000e+01 
430.950  3.50000000e+01 
429.944  2.30000000e+01 
428.938  2.60000000e+01 
427.931  3.40000000e+01 
426.925  3.80000000e+01 
425.919  4.10000000e+01 
424.913  2.90000000e+01 
423.906  3.40000000e+01 
422.900  4.00000000e+01 
421.894  4.30000000e+01 
420.887  3.50000000e+01 
419.881  4.50000000e+01 
418.875  3.10000000e+01 
417.869  3.20000000e+01 
416.863  2.50000000e+01 
415.856  3.10000000e+01 
414.850  2.80000000e+01 
413.844  3.20000000e+01 
412.837  3.80000000e+01 
411.831  3.00000000e+01 
410.825  2.70000000e+01 
409.819  2.30000000e+01 
408.812  2.60000000e+01 
407.806  4.20000000e+01 
406.800  4.30000000e+01 
405.794  5.60000000e+01 
404.787  3.30000000e+01 
403.781  3.90000000e+01 
402.775  1.80000000e+01 
401.769  3.50000000e+01 
400.762  2.60000000e+01 
399.756  2.60000000e+01 
398.750  3.30000000e+01 
397.744  3.70000000e+01 
396.738  2.50000000e+01 
395.731  3.30000000e+01 
394.725  3.30000000e+01 
393.719  1.50000000e+01 
392.712  2.70000000e+01 
391.706  3.60000000e+01 
390.700  1.20000000e+01 
389.694  3.60000000e+01 
388.688  3.60000000e+01 
387.681  2.80000000e+01 
386.675  3.50000000e+01 
385.669  3.20000000e+01 
384.662  3.20000000e+01 
383.656  3.40000000e+01 
382.650  2.90000000e+01 
381.644  2.70000000e+01 
380.637  3.20000000e+01 
379.631  3.00000000e+01 
378.625  2.80000000e+01 
377.619  2.80000000e+01 
376.612  2.90000000e+01 
375.606  3.30000000e+01 
374.600  4.00000000e+01 
373.594  3.50000000e+01 
372.587  4.30000000e+01 
371.581  2.50000000e+01 
370.575  3.60000000e+01 
369.569  3.40000000e+01 
368.562  4.20000000e+01 
367.556  3.20000000e+01 
366.550  2.50000000e+01 
365.544  3.40000000e+01 
364.537  3.70000000e+01 
363.531  3.70000000e+01 
362.525  3.20000000e+01 
361.519  3.60000000e+01 
360.512  3.70000000e+01 
359.506  4.00000000e+01 
358.500  3.60000000e+01 
357.494  3.90000000e+01 
356.487  4.10000000e+01 
355.481  3.40000000e+01 
354.475  3.50000000e+01 
353.469  3.50000000e+01 
352.462  4.60000000e+01 
351.456  3.90000000e+01 
350.450  4.30000000e+01 
349.444  3.00000000e+01 
348.437  3.40000000e+01 
347.431  2.20000000e+01 
346.425  3.00000000e+01 
345.419  3.10000000e+01 
344.412  2.80000000e+01 
343.406  3.60000000e+01 
342.400  2.30000000e+01 
341.394  2.80000000e+01 
340.387  2.60000000e+01 
339.381  3.30000000e+01 
338.375  4.50000000e+01 
337.369  2.90000000e+01 
336.362  3.50000000e+01 
335.356  3.30000000e+01 
334.350  2.70000000e+01 
333.344  3.80000000e+01 
332.337  3.10000000e+01 
331.331  3.50000000e+01 
330.325  3.40000000e+01 
329.319  3.40000000e+01 
328.312  2.50000000e+01 
327.306  2.00000000e+01 
326.300  3.30000000e+01 
325.294  2.50000000e+01 
324.287  2.40000000e+01 
323.281  3.00000000e+01 
322.275  3.10000000e+01 
321.269  3.30000000e+01 
320.262  3.10000000e+01 
319.256  3.70000000e+01 
318.250  2.70000000e+01 
317.244  3.20000000e+01 
316.237  3.50000000e+01 
315.231  3.10000000e+01 
314.225  3.20000000e+01 
313.219  5.30000000e+01 
312.212  3.80000000e+01 
311.206  4.10000000e+01 
310.200  4.70000000e+01 
309.194  3.40000000e+01 
308.187  2.90000000e+01 
307.181  2.80000000e+01 
306.175  3.90000000e+01 
305.169  2.80000000e+01 
304.162  2.50000000e+01 
303.156  2.40000000e+01 
302.150  2.70000000e+01 
301.144  3.30000000e+01 
300.137  3.00000000e+01 
299.131  4.10000000e+01 
298.125  3.90000000e+01 
297.119  2.40000000e+01 
296.112  2.90000000e+01 
295.106  4.20000000e+01 
294.100  4.40000000e+01 
293.094  4.70000000e+01 
292.087  4.90000000e+01 
291.081  1.05000000e+02 
290.075  8.10000000e+01 
289.069  2.70000000e+01 
288.062  2.60000000e+01 
287.056  2.40000000e+01 
286.050  2.70000000e+01 
285.044  2.00000000e+01 
284.037  2.00000000e+01 
283.031  1.90000000e+01 
282.025  1.30000000e+01 
281.019  2.80000000e+01 
280.012  2.10000000e+01 
279.006  2.40000000e+01 
278.000  3.30000000e+01 
276.994  2.00000000e+01 
275.987  1.60000000e+01 
274.981  2.20000000e+01 
273.975  1.80000000e+01 
272.969  2.10000000e+01 
271.962  1.30000000e+01 
270.956  2.20000000e+01 
269.950  2.50000000e+01 
268.944  1.70000000e+01 
267.937  1.90000000e+01 
266.931  2.30000000e+01 
265.925  1.30000000e+01 
264.919  1.30000000e+01 
263.912  1.60000000e+01 
262.906  2.00000000e+01 
261.900  1.70000000e+01 
260.894  2.00000000e+01 
259.887  2.30000000e+01 
258.881  2.10000000e+01 
257.875  2.30000000e+01 
256.869  1.50000000e+01 
255.862  1.80000000e+01 
254.856  2.00000000e+01 
253.850  2.60000000e+01 
252.844  1.90000000e+01 
251.837  1.80000000e+01 
250.831  1.80000000e+01 
249.825  2.90000000e+01 
248.819  1.70000000e+01 
247.812  2.40000000e+01 
246.806  1.60000000e+01 
245.800  2.00000000e+01 
244.794  2.20000000e+01 
243.787  2.30000000e+01 
242.781  2.00000000e+01 
241.775  2.00000000e+01 
240.769  2.80000000e+01 
239.762  2.10000000e+01 
238.756  2.10000000e+01 
237.750  3.70000000e+01 
236.744  2.10000000e+01 
235.737  3.20000000e+01 
234.731  2.70000000e+01 
233.725  1.40000000e+01 
232.719  2.30000000e+01 
231.712  2.80000000e+01 
230.706  2.20000000e+01 
229.700  1.90000000e+01 
228.694  1.80000000e+01 
227.687  2.00000000e+01 
226.681  2.00000000e+01 
225.675  2.00000000e+01 
224.669  2.30000000e+01 
223.662  1.90000000e+01 
222.656  2.40000000e+01 
221.650  1.60000000e+01 
220.644  2.20000000e+01 
219.637  1.30000000e+01 
218.631  1.80000000e+01 
217.625  2.50000000e+01 
216.619  1.60000000e+01 
215.612  1.70000000e+01 
214.606  1.80000000e+01 
213.600  1.70000000e+01 
212.594  1.50000000e+01 
211.587  1.00000000e+01 
210.581  2.80000000e+01 
209.575  1.20000000e+01 
208.569  2.40000000e+01 
207.562  2.20000000e+01 
206.556  2.50000000e+01 
205.550  2.40000000e+01 
204.544  2.70000000e+01 
203.537  1.60000000e+01 
202.531  2.80000000e+01 
201.525  1.90000000e+01 
200.519  1.60000000e+01 
199.512  1.90000000e+01 
198.506  1.60000000e+01 
197.500  2.00000000e+01 
196.494  1.90000000e+01 
195.487  2.00000000e+01 
194.481  1.30000000e+01 
193.475  2.70000000e+01 
192.469  1.80000000e+01 
191.462  1.30000000e+01 
190.456  2.40000000e+01 
189.450  2.30000000e+01 
188.444  2.10000000e+01 
187.437  1.70000000e+01 
186.431  2.20000000e+01 
185.425  2.70000000e+01 
184.419  1.70000000e+01 
183.412  2.20000000e+01 
182.406  1.90000000e+01 
181.400  1.00000000e+01 
180.394  2.20000000e+01 
179.387  2.10000000e+01 
178.381  2.10000000e+01 
177.375  1.70000000e+01 
176.369  1.30000000e+01 
175.362  2.60000000e+01 
174.356  1.90000000e+01 
173.350  3.20000000e+01 
172.344  1.20000000e+01 
171.337  1.60000000e+01 
170.331  1.80000000e+01 
169.325  2.10000000e+01 
168.319  1.40000000e+01 
167.312  6.00000000e+00 
166.306  2.00000000e+01 
165.300  1.90000000e+01 
164.294  2.70000000e+01 
163.287  9.00000000e+00 
162.281  2.00000000e+01 
161.275  2.20000000e+01 
160.269  2.20000000e+01 
159.262  1.90000000e+01 
158.256  2.20000000e+01 
157.250  1.70000000e+01 
156.244  1.40000000e+01 
155.237  1.30000000e+01 
154.231  1.90000000e+01 
153.225  9.00000000e+00 
152.219  1.80000000e+01 
151.212  1.70000000e+01 
150.206  1.60000000e+01 
149.200  2.40000000e+01 
148.194  3.00000000e+01 
147.187  1.70000000e+01 
146.181  1.50000000e+01 
145.175  1.30000000e+01 
144.169  1.90000000e+01 
143.162  2.30000000e+01 
142.156  1.50000000e+01 
141.150  1.00000000e+01 
140.144  1.50000000e+01 
139.137  1.50000000e+01 
138.131  1.40000000e+01 
137.125  1.50000000e+01 
136.119  1.40000000e+01 
135.112  2.00000000e+01 
134.106  1.40000000e+01 
133.100  1.60000000e+01 
132.094  1.70000000e+01 
131.087  1.00000000e+01 
130.081  1.50000000e+01 
129.075  1.30000000e+01 
128.069  1.10000000e+01 
127.062  2.30000000e+01 
126.056  1.40000000e+01 
125.050  1.90000000e+01 
124.044  1.80000000e+01 
123.037  1.40000000e+01 
122.031  1.60000000e+01 
121.025  1.50000000e+01 
120.019  1.30000000e+01 
119.012  1.20000000e+01 
118.006  1.10000000e+01 
117.000  9.00000000e+00 
115.994  1.00000000e+01 
114.987  1.20000000e+01 
113.981  8.00000000e+00 
112.975  1.40000000e+01 
111.969  1.30000000e+01 
110.962  1.10000000e+01 
109.956  1.90000000e+01 
108.950  1.10000000e+01 
107.944  1.80000000e+01 
106.937  1.60000000e+01 
105.931  1.40000000e+01 
104.925  8.00000000e+00 
103.919  1.50000000e+01 
102.912  1.10000000e+01 
101.906  1.10000000e+01 
100.900  1.00000000e+01 
99.894   1.20000000e+01 
98.887   1.00000000e+01 
97.881   1.00000000e+01 
96.875   1.00000000e+01 
95.869   2.20000000e+01 
94.862   1.00000000e+01 
93.856   1.40000000e+01 
92.850   1.20000000e+01 
91.844   1.30000000e+01 
90.837   1.40000000e+01 
89.831   1.50000000e+01 
88.825   9.00000000e+00 
87.819   1.30000000e+01 
86.812   1.60000000e+01 
85.806   1.50000000e+01 
84.800   1.00000000e+01 
83.794   8.00000000e+00 
82.787   6.00000000e+00 
81.781   8.00000000e+00 
80.775   1.00000000e+01 
79.769   1.40000000e+01 
78.762   1.20000000e+01 
77.756   4.00000000e+00 
76.750   8.00000000e+00 
75.744   8.00000000e+00 
74.737   8.00000000e+00 
73.731   8.00000000e+00 
72.725   6.00000000e+00 
71.719   1.00000000e+01 
70.712   1.50000000e+01 
69.706   1.30000000e+01 
68.700   1.90000000e+01 
67.694   2.30000000e+01 
66.687   1.00000000e+01 
65.681   1.00000000e+01 
64.675   1.50000000e+01 
63.669   8.00000000e+00 
62.662   5.00000000e+00 
61.656   8.00000000e+00 
60.650   6.00000000e+00 
59.644   5.00000000e+00 
58.637   3.00000000e+00 
57.631   5.00000000e+00 
56.625   6.00000000e+00 
55.619   1.40000000e+01 
54.612   1.10000000e+01 
53.606   4.00000000e+00 
52.600   6.00000000e+00 
51.594   7.00000000e+00 
50.587   7.00000000e+00 
49.581   9.00000000e+00 
48.575   8.00000000e+00 
47.569   9.00000000e+00 
46.562   0.00000000e+00 
45.556   9.00000000e+00 
44.550   2.00000000e+00 
43.544   8.00000000e+00 
42.537   5.00000000e+00 
41.531   5.00000000e+00 
40.525   7.00000000e+00 
39.519   8.00000000e+00 
38.512   3.00000000e+00 
37.506   4.00000000e+00 
36.500   8.00000000e+00 
35.494   1.50000000e+01 
34.487   6.00000000e+00 
33.481   8.00000000e+00 
32.475   3.00000000e+00 
31.469   9.00000000e+00 
30.462   1.20000000e+01 
29.456   7.00000000e+00 
28.450   1.30000000e+01 
27.444   9.00000000e+00 
26.437   2.00000000e+00 
25.431   3.00000000e+00 
24.425   5.00000000e+00 
23.419   4.00000000e+00 
22.412   5.00000000e+00 
21.406   5.00000000e+00 
20.400   3.00000000e+00 
19.394   0.00000000e+00 
18.387   4.00000000e+00 
17.381   8.00000000e+00 
16.375   5.00000000e+00 
15.369   5.00000000e+00 
14.362   4.00000000e+00 
13.356   5.00000000e+00 
12.350   0.00000000e+00 
11.344   6.00000000e+00 
10.337   6.00000000e+00 
9.331    1.00000000e+00 
8.325    0.00000000e+00 
7.319    1.00000000e+00 
6.312    0.00000000e+00 
5.306    0.00000000e+00 
4.300    1.00000000e+00 
3.294    1.00000000e+00 
2.287    2.00000000e+00 
1.281    1.00000000e+00 
0.275    0.00000000e+00 

