EXPERIMENT FILE
Version = 2

[ Experiment Parameters ]
Experiment Description= <none> 
Number_of_Regions_in_Experiment= 1 

Original_File_name= c:\alexesca\data\detector\sur_s_1.xps 
Instrument= HP ESCA West
Date= 02-09-2006
Time=  13:58:47

[ Layer Parameters ]
Layer_Type= XPS

[ Region 1 Parameters ]
Region_Description = Nsurvey                            
BEcenter(eV) = 640.000000
BEwidth(eV) = 1300.000000
BEstep(eV) = 0.359375
Dwell_Time(sec) = 0.250000
N_o_scans = 10  
N_o_Channels = 3533  
Scan_mode = 0  (DITHERED)

[ L= 1 R= 1 ]
BEcenter= 640.000 
BEwidth= -1299.500
Excitation= 1486.600
Time_p_channel= 64.000  
Size= 3617
1289.750 2.32300000e+03 
1289.391 2.29900000e+03 
1289.031 2.41800000e+03 
1288.672 2.44000000e+03 
1288.312 2.26800000e+03 
1287.953 2.30200000e+03 
1287.594 2.43100000e+03 
1287.234 2.31400000e+03 
1286.875 2.37700000e+03 
1286.516 2.44900000e+03 
1286.156 2.35500000e+03 
1285.797 2.42800000e+03 
1285.438 2.43100000e+03 
1285.078 2.36300000e+03 
1284.719 2.40300000e+03 
1284.359 2.30900000e+03 
1284.000 2.27700000e+03 
1283.641 2.43500000e+03 
1283.281 2.44700000e+03 
1282.922 2.32200000e+03 
1282.562 2.32500000e+03 
1282.203 2.41100000e+03 
1281.844 2.43700000e+03 
1281.484 2.41400000e+03 
1281.125 2.40900000e+03 
1280.766 2.43700000e+03 
1280.406 2.45700000e+03 
1280.047 2.36300000e+03 
1279.688 2.43000000e+03 
1279.328 2.36000000e+03 
1278.969 2.38000000e+03 
1278.609 2.42800000e+03 
1278.250 2.37500000e+03 
1277.891 2.35100000e+03 
1277.531 2.37900000e+03 
1277.172 2.40800000e+03 
1276.812 2.32500000e+03 
1276.453 2.38900000e+03 
1276.094 2.43300000e+03 
1275.734 2.46500000e+03 
1275.375 2.37800000e+03 
1275.016 2.45300000e+03 
1274.656 2.34900000e+03 
1274.297 2.40100000e+03 
1273.938 2.48000000e+03 
1273.578 2.32500000e+03 
1273.219 2.46600000e+03 
1272.859 2.46600000e+03 
1272.500 2.46000000e+03 
1272.141 2.48700000e+03 
1271.781 2.48300000e+03 
1271.422 2.47600000e+03 
1271.062 2.39000000e+03 
1270.703 2.48700000e+03 
1270.344 2.41800000e+03 
1269.984 2.40200000e+03 
1269.625 2.50400000e+03 
1269.266 2.37300000e+03 
1268.906 2.43700000e+03 
1268.547 2.44800000e+03 
1268.188 2.43200000e+03 
1267.828 2.43100000e+03 
1267.469 2.59300000e+03 
1267.109 2.52700000e+03 
1266.750 2.45600000e+03 
1266.391 2.39600000e+03 
1266.031 2.43700000e+03 
1265.672 2.53500000e+03 
1265.312 2.52700000e+03 
1264.953 2.46800000e+03 
1264.594 2.53000000e+03 
1264.234 2.54300000e+03 
1263.875 2.45800000e+03 
1263.516 2.50700000e+03 
1263.156 2.47900000e+03 
1262.797 2.48900000e+03 
1262.438 2.51900000e+03 
1262.078 2.41100000e+03 
1261.719 2.42600000e+03 
1261.359 2.46200000e+03 
1261.000 2.43100000e+03 
1260.641 2.55300000e+03 
1260.281 2.46600000e+03 
1259.922 2.44700000e+03 
1259.562 2.55500000e+03 
1259.203 2.50000000e+03 
1258.844 2.45500000e+03 
1258.484 2.49600000e+03 
1258.125 2.57500000e+03 
1257.766 2.52200000e+03 
1257.406 2.39500000e+03 
1257.047 2.47500000e+03 
1256.688 2.53400000e+03 
1256.328 2.49300000e+03 
1255.969 2.47300000e+03 
1255.609 2.52600000e+03 
1255.250 2.59400000e+03 
1254.891 2.58900000e+03 
1254.531 2.48000000e+03 
1254.172 2.60200000e+03 
1253.812 2.56700000e+03 
1253.453 2.56000000e+03 
1253.094 2.55300000e+03 
1252.734 2.59500000e+03 
1252.375 2.49100000e+03 
1252.016 2.48600000e+03 
1251.656 2.56200000e+03 
1251.297 2.60200000e+03 
1250.938 2.63600000e+03 
1250.578 2.62300000e+03 
1250.219 2.53400000e+03 
1249.859 2.63100000e+03 
1249.500 2.60000000e+03 
1249.141 2.57800000e+03 
1248.781 2.65200000e+03 
1248.422 2.50100000e+03 
1248.062 2.67500000e+03 
1247.703 2.58700000e+03 
1247.344 2.50700000e+03 
1246.984 2.61100000e+03 
1246.625 2.52400000e+03 
1246.266 2.54800000e+03 
1245.906 2.59700000e+03 
1245.547 2.56400000e+03 
1245.188 2.61100000e+03 
1244.828 2.53700000e+03 
1244.469 2.65400000e+03 
1244.109 2.58400000e+03 
1243.750 2.61400000e+03 
1243.391 2.63000000e+03 
1243.031 2.61600000e+03 
1242.672 2.55900000e+03 
1242.312 2.59100000e+03 
1241.953 2.62700000e+03 
1241.594 2.52300000e+03 
1241.234 2.60000000e+03 
1240.875 2.59100000e+03 
1240.516 2.54800000e+03 
1240.156 2.56800000e+03 
1239.797 2.57500000e+03 
1239.438 2.59200000e+03 
1239.078 2.68400000e+03 
1238.719 2.61500000e+03 
1238.359 2.67200000e+03 
1238.000 2.60400000e+03 
1237.641 2.63100000e+03 
1237.281 2.64300000e+03 
1236.922 2.62600000e+03 
1236.562 2.62800000e+03 
1236.203 2.62800000e+03 
1235.844 2.58000000e+03 
1235.484 2.56600000e+03 
1235.125 2.66700000e+03 
1234.766 2.65100000e+03 
1234.406 2.59300000e+03 
1234.047 2.67800000e+03 
1233.688 2.65600000e+03 
1233.328 2.69600000e+03 
1232.969 2.62800000e+03 
1232.609 2.66400000e+03 
1232.250 2.62500000e+03 
1231.891 2.74500000e+03 
1231.531 2.64000000e+03 
1231.172 2.63000000e+03 
1230.812 2.60300000e+03 
1230.453 2.56900000e+03 
1230.094 2.65100000e+03 
1229.734 2.70700000e+03 
1229.375 2.69200000e+03 
1229.016 2.65200000e+03 
1228.656 2.48900000e+03 
1228.297 2.49500000e+03 
1227.938 2.62600000e+03 
1227.578 2.59300000e+03 
1227.219 2.61300000e+03 
1226.859 2.65000000e+03 
1226.500 2.56500000e+03 
1226.141 2.58900000e+03 
1225.781 2.56800000e+03 
1225.422 2.62900000e+03 
1225.062 2.57700000e+03 
1224.703 2.61700000e+03 
1224.344 2.53100000e+03 
1223.984 2.57100000e+03 
1223.625 2.50900000e+03 
1223.266 2.51200000e+03 
1222.906 2.54600000e+03 
1222.547 2.44400000e+03 
1222.188 2.52700000e+03 
1221.828 2.42900000e+03 
1221.469 2.51000000e+03 
1221.109 2.56400000e+03 
1220.750 2.39200000e+03 
1220.391 2.45200000e+03 
1220.031 2.50800000e+03 
1219.672 2.45300000e+03 
1219.312 2.41800000e+03 
1218.953 2.34800000e+03 
1218.594 2.41200000e+03 
1218.234 2.50300000e+03 
1217.875 2.40900000e+03 
1217.516 2.35400000e+03 
1217.156 2.38400000e+03 
1216.797 2.42900000e+03 
1216.438 2.49400000e+03 
1216.078 2.35300000e+03 
1215.719 2.40600000e+03 
1215.359 2.45500000e+03 
1215.000 2.32100000e+03 
1214.641 2.42600000e+03 
1214.281 2.39100000e+03 
1213.922 2.27000000e+03 
1213.562 2.38800000e+03 
1213.203 2.39500000e+03 
1212.844 2.42400000e+03 
1212.484 2.35700000e+03 
1212.125 2.37700000e+03 
1211.766 2.43400000e+03 
1211.406 2.31700000e+03 
1211.047 2.30800000e+03 
1210.688 2.38300000e+03 
1210.328 2.46400000e+03 
1209.969 2.34000000e+03 
1209.609 2.33200000e+03 
1209.250 2.33300000e+03 
1208.891 2.33400000e+03 
1208.531 2.37700000e+03 
1208.172 2.34800000e+03 
1207.812 2.32000000e+03 
1207.453 2.37600000e+03 
1207.094 2.35600000e+03 
1206.734 2.51900000e+03 
1206.375 2.33500000e+03 
1206.016 2.27000000e+03 
1205.656 2.48100000e+03 
1205.297 2.31600000e+03 
1204.938 2.27800000e+03 
1204.578 2.32500000e+03 
1204.219 2.35800000e+03 
1203.859 2.37800000e+03 
1203.500 2.40400000e+03 
1203.141 2.44300000e+03 
1202.781 2.38500000e+03 
1202.422 2.39600000e+03 
1202.062 2.43100000e+03 
1201.703 2.40100000e+03 
1201.344 2.34100000e+03 
1200.984 2.34700000e+03 
1200.625 2.38800000e+03 
1200.266 2.38000000e+03 
1199.906 2.38700000e+03 
1199.547 2.40400000e+03 
1199.188 2.43100000e+03 
1198.828 2.48400000e+03 
1198.469 2.40800000e+03 
1198.109 2.40800000e+03 
1197.750 2.39400000e+03 
1197.391 2.37000000e+03 
1197.031 2.36200000e+03 
1196.672 2.38400000e+03 
1196.312 2.46500000e+03 
1195.953 2.40700000e+03 
1195.594 2.42000000e+03 
1195.234 2.36300000e+03 
1194.875 2.25700000e+03 
1194.516 2.32200000e+03 
1194.156 2.37100000e+03 
1193.797 2.35100000e+03 
1193.438 2.34500000e+03 
1193.078 2.31500000e+03 
1192.719 2.34100000e+03 
1192.359 2.31100000e+03 
1192.000 2.32800000e+03 
1191.641 2.35700000e+03 
1191.281 2.40500000e+03 
1190.922 2.32400000e+03 
1190.562 2.31200000e+03 
1190.203 2.31400000e+03 
1189.844 2.34800000e+03 
1189.484 2.40300000e+03 
1189.125 2.35300000e+03 
1188.766 2.35200000e+03 
1188.406 2.34100000e+03 
1188.047 2.32500000e+03 
1187.688 2.36200000e+03 
1187.328 2.34900000e+03 
1186.969 2.37100000e+03 
1186.609 2.27900000e+03 
1186.250 2.39300000e+03 
1185.891 2.33300000e+03 
1185.531 2.30600000e+03 
1185.172 2.32100000e+03 
1184.812 2.34700000e+03 
1184.453 2.36400000e+03 
1184.094 2.35400000e+03 
1183.734 2.32800000e+03 
1183.375 2.28800000e+03 
1183.016 2.38500000e+03 
1182.656 2.41800000e+03 
1182.297 2.38200000e+03 
1181.938 2.28400000e+03 
1181.578 2.42700000e+03 
1181.219 2.38100000e+03 
1180.859 2.41900000e+03 
1180.500 2.43400000e+03 
1180.141 2.35900000e+03 
1179.781 2.35800000e+03 
1179.422 2.30300000e+03 
1179.062 2.34800000e+03 
1178.703 2.35600000e+03 
1178.344 2.32900000e+03 
1177.984 2.49300000e+03 
1177.625 2.36200000e+03 
1177.266 2.33800000e+03 
1176.906 2.31000000e+03 
1176.547 2.26600000e+03 
1176.188 2.38900000e+03 
1175.828 2.38300000e+03 
1175.469 2.39400000e+03 
1175.109 2.35700000e+03 
1174.750 2.30800000e+03 
1174.391 2.35800000e+03 
1174.031 2.35500000e+03 
1173.672 2.29900000e+03 
1173.312 2.26800000e+03 
1172.953 2.28200000e+03 
1172.594 2.34700000e+03 
1172.234 2.30500000e+03 
1171.875 2.31100000e+03 
1171.516 2.31000000e+03 
1171.156 2.36600000e+03 
1170.797 2.43700000e+03 
1170.438 2.46000000e+03 
1170.078 2.35900000e+03 
1169.719 2.39500000e+03 
1169.359 2.36200000e+03 
1169.000 2.33200000e+03 
1168.641 2.37500000e+03 
1168.281 2.37700000e+03 
1167.922 2.37800000e+03 
1167.562 2.31700000e+03 
1167.203 2.34500000e+03 
1166.844 2.34800000e+03 
1166.484 2.32900000e+03 
1166.125 2.30000000e+03 
1165.766 2.36100000e+03 
1165.406 2.33600000e+03 
1165.047 2.29800000e+03 
1164.688 2.25800000e+03 
1164.328 2.40400000e+03 
1163.969 2.39600000e+03 
1163.609 2.38300000e+03 
1163.250 2.36600000e+03 
1162.891 2.28000000e+03 
1162.531 2.32000000e+03 
1162.172 2.36400000e+03 
1161.812 2.37100000e+03 
1161.453 2.37200000e+03 
1161.094 2.41400000e+03 
1160.734 2.41400000e+03 
1160.375 2.41400000e+03 
1160.016 2.33500000e+03 
1159.656 2.40100000e+03 
1159.297 2.31700000e+03 
1158.938 2.27600000e+03 
1158.578 2.43500000e+03 
1158.219 2.35000000e+03 
1157.859 2.31400000e+03 
1157.500 2.32900000e+03 
1157.141 2.32300000e+03 
1156.781 2.42500000e+03 
1156.422 2.29000000e+03 
1156.062 2.27400000e+03 
1155.703 2.36300000e+03 
1155.344 2.38800000e+03 
1154.984 2.36400000e+03 
1154.625 2.34200000e+03 
1154.266 2.36800000e+03 
1153.906 2.35100000e+03 
1153.547 2.40600000e+03 
1153.188 2.40000000e+03 
1152.828 2.34600000e+03 
1152.469 2.36100000e+03 
1152.109 2.41400000e+03 
1151.750 2.36800000e+03 
1151.391 2.31800000e+03 
1151.031 2.30400000e+03 
1150.672 2.30900000e+03 
1150.312 2.38200000e+03 
1149.953 2.31000000e+03 
1149.594 2.36500000e+03 
1149.234 2.38900000e+03 
1148.875 2.43200000e+03 
1148.516 2.32600000e+03 
1148.156 2.39000000e+03 
1147.797 2.31200000e+03 
1147.438 2.45000000e+03 
1147.078 2.37300000e+03 
1146.719 2.39700000e+03 
1146.359 2.32200000e+03 
1146.000 2.25000000e+03 
1145.641 2.30100000e+03 
1145.281 2.28900000e+03 
1144.922 2.33000000e+03 
1144.562 2.34500000e+03 
1144.203 2.34900000e+03 
1143.844 2.31700000e+03 
1143.484 2.35200000e+03 
1143.125 2.48700000e+03 
1142.766 2.37400000e+03 
1142.406 2.34600000e+03 
1142.047 2.39100000e+03 
1141.688 2.36500000e+03 
1141.328 2.30100000e+03 
1140.969 2.28000000e+03 
1140.609 2.32300000e+03 
1140.250 2.38900000e+03 
1139.891 2.39100000e+03 
1139.531 2.32000000e+03 
1139.172 2.37300000e+03 
1138.812 2.32700000e+03 
1138.453 2.37300000e+03 
1138.094 2.26600000e+03 
1137.734 2.25200000e+03 
1137.375 2.36800000e+03 
1137.016 2.33900000e+03 
1136.656 2.30000000e+03 
1136.297 2.31100000e+03 
1135.938 2.35600000e+03 
1135.578 2.31100000e+03 
1135.219 2.32800000e+03 
1134.859 2.34800000e+03 
1134.500 2.34700000e+03 
1134.141 2.40600000e+03 
1133.781 2.39600000e+03 
1133.422 2.29200000e+03 
1133.062 2.26000000e+03 
1132.703 2.39000000e+03 
1132.344 2.33900000e+03 
1131.984 2.37800000e+03 
1131.625 2.27800000e+03 
1131.266 2.32500000e+03 
1130.906 2.29800000e+03 
1130.547 2.32500000e+03 
1130.188 2.37300000e+03 
1129.828 2.34500000e+03 
1129.469 2.36700000e+03 
1129.109 2.33800000e+03 
1128.750 2.36700000e+03 
1128.391 2.31200000e+03 
1128.031 2.29000000e+03 
1127.672 2.26800000e+03 
1127.312 2.25000000e+03 
1126.953 2.37800000e+03 
1126.594 2.35100000e+03 
1126.234 2.29800000e+03 
1125.875 2.28400000e+03 
1125.516 2.32800000e+03 
1125.156 2.27000000e+03 
1124.797 2.37700000e+03 
1124.438 2.38900000e+03 
1124.078 2.40800000e+03 
1123.719 2.29900000e+03 
1123.359 2.21700000e+03 
1123.000 2.37000000e+03 
1122.641 2.34900000e+03 
1122.281 2.33300000e+03 
1121.922 2.32100000e+03 
1121.562 2.32500000e+03 
1121.203 2.33400000e+03 
1120.844 2.41300000e+03 
1120.484 2.25600000e+03 
1120.125 2.34600000e+03 
1119.766 2.34700000e+03 
1119.406 2.30300000e+03 
1119.047 2.38700000e+03 
1118.688 2.28400000e+03 
1118.328 2.37500000e+03 
1117.969 2.30500000e+03 
1117.609 2.39900000e+03 
1117.250 2.30800000e+03 
1116.891 2.24500000e+03 
1116.531 2.38100000e+03 
1116.172 2.27700000e+03 
1115.812 2.27900000e+03 
1115.453 2.30700000e+03 
1115.094 2.32800000e+03 
1114.734 2.34500000e+03 
1114.375 2.33200000e+03 
1114.016 2.34100000e+03 
1113.656 2.27100000e+03 
1113.297 2.43600000e+03 
1112.938 2.34700000e+03 
1112.578 2.30700000e+03 
1112.219 2.37300000e+03 
1111.859 2.28500000e+03 
1111.500 2.36700000e+03 
1111.141 2.32100000e+03 
1110.781 2.23800000e+03 
1110.422 2.39400000e+03 
1110.062 2.32100000e+03 
1109.703 2.33100000e+03 
1109.344 2.29600000e+03 
1108.984 2.30500000e+03 
1108.625 2.35200000e+03 
1108.266 2.29300000e+03 
1107.906 2.27500000e+03 
1107.547 2.33700000e+03 
1107.188 2.31400000e+03 
1106.828 2.33600000e+03 
1106.469 2.30300000e+03 
1106.109 2.32000000e+03 
1105.750 2.28500000e+03 
1105.391 2.31000000e+03 
1105.031 2.27700000e+03 
1104.672 2.40300000e+03 
1104.312 2.33100000e+03 
1103.953 2.25100000e+03 
1103.594 2.38600000e+03 
1103.234 2.34700000e+03 
1102.875 2.32000000e+03 
1102.516 2.29000000e+03 
1102.156 2.38500000e+03 
1101.797 2.35900000e+03 
1101.438 2.37800000e+03 
1101.078 2.28700000e+03 
1100.719 2.26800000e+03 
1100.359 2.34500000e+03 
1100.000 2.29300000e+03 
1099.641 2.39200000e+03 
1099.281 2.29700000e+03 
1098.922 2.31400000e+03 
1098.562 2.38400000e+03 
1098.203 2.33800000e+03 
1097.844 2.40300000e+03 
1097.484 2.29000000e+03 
1097.125 2.38300000e+03 
1096.766 2.35800000e+03 
1096.406 2.33800000e+03 
1096.047 2.35600000e+03 
1095.688 2.31200000e+03 
1095.328 2.32900000e+03 
1094.969 2.28000000e+03 
1094.609 2.33800000e+03 
1094.250 2.31100000e+03 
1093.891 2.24100000e+03 
1093.531 2.28200000e+03 
1093.172 2.26100000e+03 
1092.812 2.38100000e+03 
1092.453 2.30700000e+03 
1092.094 2.25200000e+03 
1091.734 2.20900000e+03 
1091.375 2.28800000e+03 
1091.016 2.27700000e+03 
1090.656 2.31800000e+03 
1090.297 2.21300000e+03 
1089.938 2.20100000e+03 
1089.578 2.24700000e+03 
1089.219 2.17000000e+03 
1088.859 2.23200000e+03 
1088.500 2.29100000e+03 
1088.141 2.29000000e+03 
1087.781 2.19600000e+03 
1087.422 2.30500000e+03 
1087.062 2.24900000e+03 
1086.703 2.20300000e+03 
1086.344 2.23800000e+03 
1085.984 2.34300000e+03 
1085.625 2.21800000e+03 
1085.266 2.13400000e+03 
1084.906 2.28900000e+03 
1084.547 2.12800000e+03 
1084.188 2.15300000e+03 
1083.828 2.22200000e+03 
1083.469 2.15700000e+03 
1083.109 2.13700000e+03 
1082.750 2.16100000e+03 
1082.391 2.13300000e+03 
1082.031 2.08400000e+03 
1081.672 2.15700000e+03 
1081.312 2.09600000e+03 
1080.953 2.02700000e+03 
1080.594 2.20600000e+03 
1080.234 2.07900000e+03 
1079.875 2.16800000e+03 
1079.516 2.20400000e+03 
1079.156 2.15700000e+03 
1078.797 2.23900000e+03 
1078.438 2.33200000e+03 
1078.078 2.47000000e+03 
1077.719 2.55400000e+03 
1077.359 3.03600000e+03 
1077.000 3.27100000e+03 
1076.641 3.63400000e+03 
1076.281 4.14500000e+03 
1075.922 4.00200000e+03 
1075.562 3.76000000e+03 
1075.203 3.10600000e+03 
1074.844 2.59200000e+03 
1074.484 2.29600000e+03 
1074.125 2.23500000e+03 
1073.766 2.09100000e+03 
1073.406 2.09000000e+03 
1073.047 2.09000000e+03 
1072.688 2.01400000e+03 
1072.328 2.02500000e+03 
1071.969 2.10500000e+03 
1071.609 2.12600000e+03 
1071.250 1.98100000e+03 
1070.891 2.14200000e+03 
1070.531 2.09200000e+03 
1070.172 2.00700000e+03 
1069.812 2.16900000e+03 
1069.453 1.98800000e+03 
1069.094 2.04200000e+03 
1068.734 2.04000000e+03 
1068.375 2.05400000e+03 
1068.016 2.10800000e+03 
1067.656 2.06700000e+03 
1067.297 1.96400000e+03 
1066.938 2.03000000e+03 
1066.578 2.07600000e+03 
1066.219 2.01500000e+03 
1065.859 2.11300000e+03 
1065.500 2.03700000e+03 
1065.141 2.05100000e+03 
1064.781 2.01500000e+03 
1064.422 2.11400000e+03 
1064.062 2.10900000e+03 
1063.703 2.09300000e+03 
1063.344 2.05100000e+03 
1062.984 2.04300000e+03 
1062.625 2.07300000e+03 
1062.266 2.00900000e+03 
1061.906 2.12200000e+03 
1061.547 2.02500000e+03 
1061.188 1.92600000e+03 
1060.828 2.07200000e+03 
1060.469 2.04000000e+03 
1060.109 2.15700000e+03 
1059.750 2.03100000e+03 
1059.391 2.01200000e+03 
1059.031 2.07300000e+03 
1058.672 2.03400000e+03 
1058.312 2.08900000e+03 
1057.953 2.01500000e+03 
1057.594 2.05200000e+03 
1057.234 2.01600000e+03 
1056.875 2.08900000e+03 
1056.516 2.03600000e+03 
1056.156 1.99800000e+03 
1055.797 1.98400000e+03 
1055.438 2.10900000e+03 
1055.078 2.02500000e+03 
1054.719 2.15400000e+03 
1054.359 1.92400000e+03 
1054.000 2.03900000e+03 
1053.641 2.02100000e+03 
1053.281 1.96900000e+03 
1052.922 2.03500000e+03 
1052.562 2.07600000e+03 
1052.203 2.04600000e+03 
1051.844 2.00800000e+03 
1051.484 2.07600000e+03 
1051.125 2.13800000e+03 
1050.766 2.02900000e+03 
1050.406 2.12300000e+03 
1050.047 2.10100000e+03 
1049.688 2.08100000e+03 
1049.328 2.16700000e+03 
1048.969 2.11200000e+03 
1048.609 2.03600000e+03 
1048.250 2.06200000e+03 
1047.891 2.02700000e+03 
1047.531 2.03100000e+03 
1047.172 2.04500000e+03 
1046.812 2.11800000e+03 
1046.453 2.05700000e+03 
1046.094 2.07100000e+03 
1045.734 2.08000000e+03 
1045.375 2.02800000e+03 
1045.016 1.98700000e+03 
1044.656 1.98400000e+03 
1044.297 2.08200000e+03 
1043.938 2.11000000e+03 
1043.578 2.02600000e+03 
1043.219 2.08400000e+03 
1042.859 2.04200000e+03 
1042.500 2.04300000e+03 
1042.141 2.11300000e+03 
1041.781 1.97700000e+03 
1041.422 2.04400000e+03 
1041.062 1.99200000e+03 
1040.703 2.00600000e+03 
1040.344 1.98600000e+03 
1039.984 2.05200000e+03 
1039.625 2.06900000e+03 
1039.266 2.05100000e+03 
1038.906 2.09500000e+03 
1038.547 2.04700000e+03 
1038.188 2.09700000e+03 
1037.828 2.11200000e+03 
1037.469 2.02500000e+03 
1037.109 1.98800000e+03 
1036.750 2.09000000e+03 
1036.391 2.02900000e+03 
1036.031 2.03200000e+03 
1035.672 2.01300000e+03 
1035.312 2.04800000e+03 
1034.953 2.02300000e+03 
1034.594 2.01000000e+03 
1034.234 2.02100000e+03 
1033.875 2.06800000e+03 
1033.516 2.02300000e+03 
1033.156 1.99600000e+03 
1032.797 2.04200000e+03 
1032.438 1.98400000e+03 
1032.078 2.01400000e+03 
1031.719 2.00900000e+03 
1031.359 2.05300000e+03 
1031.000 2.01100000e+03 
1030.641 2.00600000e+03 
1030.281 2.04800000e+03 
1029.922 2.08800000e+03 
1029.562 2.00800000e+03 
1029.203 2.04800000e+03 
1028.844 2.09500000e+03 
1028.484 2.06000000e+03 
1028.125 2.08500000e+03 
1027.766 2.13000000e+03 
1027.406 2.14700000e+03 
1027.047 2.25700000e+03 
1026.688 2.14600000e+03 
1026.328 2.13500000e+03 
1025.969 2.22500000e+03 
1025.609 2.14600000e+03 
1025.250 2.01600000e+03 
1024.891 2.07100000e+03 
1024.531 2.07900000e+03 
1024.172 2.01600000e+03 
1023.812 2.13600000e+03 
1023.453 2.04500000e+03 
1023.094 1.96500000e+03 
1022.734 1.96300000e+03 
1022.375 1.97900000e+03 
1022.016 2.10000000e+03 
1021.656 2.01000000e+03 
1021.297 1.98200000e+03 
1020.938 1.93900000e+03 
1020.578 2.03600000e+03 
1020.219 2.03600000e+03 
1019.859 1.99600000e+03 
1019.500 2.00800000e+03 
1019.141 1.98900000e+03 
1018.781 2.00900000e+03 
1018.422 2.02400000e+03 
1018.062 2.01300000e+03 
1017.703 1.98600000e+03 
1017.344 1.96000000e+03 
1016.984 1.97500000e+03 
1016.625 2.06500000e+03 
1016.266 2.04700000e+03 
1015.906 2.05200000e+03 
1015.547 1.96300000e+03 
1015.188 1.91800000e+03 
1014.828 2.06300000e+03 
1014.469 2.12300000e+03 
1014.109 2.03900000e+03 
1013.750 2.00200000e+03 
1013.391 2.00300000e+03 
1013.031 1.91300000e+03 
1012.672 1.95400000e+03 
1012.312 1.97200000e+03 
1011.953 2.03600000e+03 
1011.594 2.02200000e+03 
1011.234 1.99400000e+03 
1010.875 1.96900000e+03 
1010.516 2.03000000e+03 
1010.156 2.05700000e+03 
1009.797 2.12500000e+03 
1009.438 1.96900000e+03 
1009.078 2.13900000e+03 
1008.719 2.00700000e+03 
1008.359 1.97400000e+03 
1008.000 2.02400000e+03 
1007.641 1.94400000e+03 
1007.281 2.00800000e+03 
1006.922 1.99900000e+03 
1006.562 1.92900000e+03 
1006.203 2.08900000e+03 
1005.844 1.99200000e+03 
1005.484 2.05700000e+03 
1005.125 2.03300000e+03 
1004.766 2.01800000e+03 
1004.406 2.00900000e+03 
1004.047 1.98700000e+03 
1003.688 2.08000000e+03 
1003.328 1.93800000e+03 
1002.969 2.04900000e+03 
1002.609 2.01300000e+03 
1002.250 2.01400000e+03 
1001.891 2.02700000e+03 
1001.531 1.99900000e+03 
1001.172 1.88300000e+03 
1000.812 2.03700000e+03 
1000.453 1.99000000e+03 
1000.094 1.89400000e+03 
999.734  1.88600000e+03 
999.375  1.96700000e+03 
999.016  1.93500000e+03 
998.656  1.96300000e+03 
998.297  1.96600000e+03 
997.938  1.96600000e+03 
997.578  1.95700000e+03 
997.219  1.90400000e+03 
996.859  2.02100000e+03 
996.500  2.02800000e+03 
996.141  1.94700000e+03 
995.781  1.93700000e+03 
995.422  1.96800000e+03 
995.062  1.90600000e+03 
994.703  1.85100000e+03 
994.344  1.89100000e+03 
993.984  1.88300000e+03 
993.625  1.85900000e+03 
993.266  1.95800000e+03 
992.906  1.94500000e+03 
992.547  1.97800000e+03 
992.188  1.83700000e+03 
991.828  1.81400000e+03 
991.469  1.83400000e+03 
991.109  1.89600000e+03 
990.750  1.80300000e+03 
990.391  1.75200000e+03 
990.031  1.88700000e+03 
989.672  1.80300000e+03 
989.312  1.83600000e+03 
988.953  1.85300000e+03 
988.594  1.84900000e+03 
988.234  1.91300000e+03 
987.875  1.86500000e+03 
987.516  1.91100000e+03 
987.156  1.90200000e+03 
986.797  1.88600000e+03 
986.438  1.94300000e+03 
986.078  1.92400000e+03 
985.719  1.89200000e+03 
985.359  1.85700000e+03 
985.000  2.00400000e+03 
984.641  2.05500000e+03 
984.281  2.00200000e+03 
983.922  2.05500000e+03 
983.562  1.96600000e+03 
983.203  2.09300000e+03 
982.844  2.09400000e+03 
982.484  2.02000000e+03 
982.125  2.02200000e+03 
981.766  2.11300000e+03 
981.406  2.12700000e+03 
981.047  1.98600000e+03 
980.688  2.09300000e+03 
980.328  2.04300000e+03 
979.969  2.02500000e+03 
979.609  2.04100000e+03 
979.250  1.93000000e+03 
978.891  1.99600000e+03 
978.531  1.93200000e+03 
978.172  1.87800000e+03 
977.812  1.80900000e+03 
977.453  1.86000000e+03 
977.094  1.85300000e+03 
976.734  1.84700000e+03 
976.375  1.90900000e+03 
976.016  1.87800000e+03 
975.656  1.80800000e+03 
975.297  1.79700000e+03 
974.938  1.76100000e+03 
974.578  1.73300000e+03 
974.219  1.70200000e+03 
973.859  1.63500000e+03 
973.500  1.61000000e+03 
973.141  1.68800000e+03 
972.781  1.60500000e+03 
972.422  1.68400000e+03 
972.062  1.67900000e+03 
971.703  1.63800000e+03 
971.344  1.63500000e+03 
970.984  1.56100000e+03 
970.625  1.59000000e+03 
970.266  1.59300000e+03 
969.906  1.49600000e+03 
969.547  1.55500000e+03 
969.188  1.52000000e+03 
968.828  1.55900000e+03 
968.469  1.57800000e+03 
968.109  1.54200000e+03 
967.750  1.58300000e+03 
967.391  1.55600000e+03 
967.031  1.55100000e+03 
966.672  1.50200000e+03 
966.312  1.54600000e+03 
965.953  1.61600000e+03 
965.594  1.54300000e+03 
965.234  1.52800000e+03 
964.875  1.56900000e+03 
964.516  1.49600000e+03 
964.156  1.48200000e+03 
963.797  1.54200000e+03 
963.438  1.56300000e+03 
963.078  1.54700000e+03 
962.719  1.58900000e+03 
962.359  1.62700000e+03 
962.000  1.52700000e+03 
961.641  1.52900000e+03 
961.281  1.45200000e+03 
960.922  1.48800000e+03 
960.562  1.56900000e+03 
960.203  1.52600000e+03 
959.844  1.50700000e+03 
959.484  1.48200000e+03 
959.125  1.52000000e+03 
958.766  1.51600000e+03 
958.406  1.45600000e+03 
958.047  1.50300000e+03 
957.688  1.53400000e+03 
957.328  1.47600000e+03 
956.969  1.53800000e+03 
956.609  1.50700000e+03 
956.250  1.44800000e+03 
955.891  1.49400000e+03 
955.531  1.49500000e+03 
955.172  1.52400000e+03 
954.812  1.55700000e+03 
954.453  1.40400000e+03 
954.094  1.51500000e+03 
953.734  1.45200000e+03 
953.375  1.43600000e+03 
953.016  1.48900000e+03 
952.656  1.48200000e+03 
952.297  1.51200000e+03 
951.938  1.53200000e+03 
951.578  1.51200000e+03 
951.219  1.45800000e+03 
950.859  1.46600000e+03 
950.500  1.45000000e+03 
950.141  1.46800000e+03 
949.781  1.48700000e+03 
949.422  1.41500000e+03 
949.062  1.43900000e+03 
948.703  1.47200000e+03 
948.344  1.47100000e+03 
947.984  1.49600000e+03 
947.625  1.39000000e+03 
947.266  1.48900000e+03 
946.906  1.43900000e+03 
946.547  1.44900000e+03 
946.188  1.45400000e+03 
945.828  1.44800000e+03 
945.469  1.44900000e+03 
945.109  1.45000000e+03 
944.750  1.36500000e+03 
944.391  1.43600000e+03 
944.031  1.47000000e+03 
943.672  1.50000000e+03 
943.312  1.33800000e+03 
942.953  1.44600000e+03 
942.594  1.47200000e+03 
942.234  1.50600000e+03 
941.875  1.42700000e+03 
941.516  1.42400000e+03 
941.156  1.41900000e+03 
940.797  1.39000000e+03 
940.438  1.39700000e+03 
940.078  1.43700000e+03 
939.719  1.43600000e+03 
939.359  1.38200000e+03 
939.000  1.36200000e+03 
938.641  1.39800000e+03 
938.281  1.39400000e+03 
937.922  1.44100000e+03 
937.562  1.44300000e+03 
937.203  1.40600000e+03 
936.844  1.42300000e+03 
936.484  1.36100000e+03 
936.125  1.45300000e+03 
935.766  1.43200000e+03 
935.406  1.37800000e+03 
935.047  1.44600000e+03 
934.688  1.35600000e+03 
934.328  1.38500000e+03 
933.969  1.39200000e+03 
933.609  1.39800000e+03 
933.250  1.35100000e+03 
932.891  1.42800000e+03 
932.531  1.34600000e+03 
932.172  1.31000000e+03 
931.812  1.37300000e+03 
931.453  1.34800000e+03 
931.094  1.43700000e+03 
930.734  1.33000000e+03 
930.375  1.33300000e+03 
930.016  1.43800000e+03 
929.656  1.42400000e+03 
929.297  1.38600000e+03 
928.938  1.40300000e+03 
928.578  1.40100000e+03 
928.219  1.45400000e+03 
927.859  1.40200000e+03 
927.500  1.42800000e+03 
927.141  1.43200000e+03 
926.781  1.38500000e+03 
926.422  1.43000000e+03 
926.062  1.37400000e+03 
925.703  1.36700000e+03 
925.344  1.38100000e+03 
924.984  1.43400000e+03 
924.625  1.42300000e+03 
924.266  1.42100000e+03 
923.906  1.40200000e+03 
923.547  1.42200000e+03 
923.188  1.38700000e+03 
922.828  1.40600000e+03 
922.469  1.40100000e+03 
922.109  1.39900000e+03 
921.750  1.37600000e+03 
921.391  1.39900000e+03 
921.031  1.39000000e+03 
920.672  1.37500000e+03 
920.312  1.36900000e+03 
919.953  1.37900000e+03 
919.594  1.39300000e+03 
919.234  1.34200000e+03 
918.875  1.37300000e+03 
918.516  1.34500000e+03 
918.156  1.44300000e+03 
917.797  1.41100000e+03 
917.438  1.36200000e+03 
917.078  1.40600000e+03 
916.719  1.35900000e+03 
916.359  1.40500000e+03 
916.000  1.39900000e+03 
915.641  1.40200000e+03 
915.281  1.37200000e+03 
914.922  1.36600000e+03 
914.562  1.40800000e+03 
914.203  1.39100000e+03 
913.844  1.42600000e+03 
913.484  1.36200000e+03 
913.125  1.38100000e+03 
912.766  1.44600000e+03 
912.406  1.40200000e+03 
912.047  1.34500000e+03 
911.688  1.44500000e+03 
911.328  1.33300000e+03 
910.969  1.43700000e+03 
910.609  1.37900000e+03 
910.250  1.39400000e+03 
909.891  1.42300000e+03 
909.531  1.42100000e+03 
909.172  1.43900000e+03 
908.812  1.34100000e+03 
908.453  1.42300000e+03 
908.094  1.41800000e+03 
907.734  1.36400000e+03 
907.375  1.33100000e+03 
907.016  1.33600000e+03 
906.656  1.34000000e+03 
906.297  1.42000000e+03 
905.938  1.39300000e+03 
905.578  1.36700000e+03 
905.219  1.37300000e+03 
904.859  1.31600000e+03 
904.500  1.33700000e+03 
904.141  1.38000000e+03 
903.781  1.31500000e+03 
903.422  1.39400000e+03 
903.062  1.36300000e+03 
902.703  1.38100000e+03 
902.344  1.33800000e+03 
901.984  1.33900000e+03 
901.625  1.31400000e+03 
901.266  1.36200000e+03 
900.906  1.45300000e+03 
900.547  1.28800000e+03 
900.188  1.30000000e+03 
899.828  1.36500000e+03 
899.469  1.38700000e+03 
899.109  1.39300000e+03 
898.750  1.33800000e+03 
898.391  1.36000000e+03 
898.031  1.35600000e+03 
897.672  1.37300000e+03 
897.312  1.33900000e+03 
896.953  1.34000000e+03 
896.594  1.33500000e+03 
896.234  1.33100000e+03 
895.875  1.28200000e+03 
895.516  1.35800000e+03 
895.156  1.33000000e+03 
894.797  1.25800000e+03 
894.438  1.29100000e+03 
894.078  1.26400000e+03 
893.719  1.24100000e+03 
893.359  1.26200000e+03 
893.000  1.28600000e+03 
892.641  1.21900000e+03 
892.281  1.26600000e+03 
891.922  1.30400000e+03 
891.562  1.26000000e+03 
891.203  1.32200000e+03 
890.844  1.33000000e+03 
890.484  1.28200000e+03 
890.125  1.24400000e+03 
889.766  1.23300000e+03 
889.406  1.30600000e+03 
889.047  1.29600000e+03 
888.688  1.25600000e+03 
888.328  1.22600000e+03 
887.969  1.27900000e+03 
887.609  1.25800000e+03 
887.250  1.31900000e+03 
886.891  1.29400000e+03 
886.531  1.26900000e+03 
886.172  1.27800000e+03 
885.812  1.27400000e+03 
885.453  1.24100000e+03 
885.094  1.27800000e+03 
884.734  1.24500000e+03 
884.375  1.22900000e+03 
884.016  1.20400000e+03 
883.656  1.36000000e+03 
883.297  1.25900000e+03 
882.938  1.29900000e+03 
882.578  1.26100000e+03 
882.219  1.27700000e+03 
881.859  1.30100000e+03 
881.500  1.30200000e+03 
881.141  1.28600000e+03 
880.781  1.26200000e+03 
880.422  1.24800000e+03 
880.062  1.20800000e+03 
879.703  1.29900000e+03 
879.344  1.31600000e+03 
878.984  1.24200000e+03 
878.625  1.28700000e+03 
878.266  1.24100000e+03 
877.906  1.25700000e+03 
877.547  1.25000000e+03 
877.188  1.29000000e+03 
876.828  1.21600000e+03 
876.469  1.24500000e+03 
876.109  1.24100000e+03 
875.750  1.26700000e+03 
875.391  1.30700000e+03 
875.031  1.28900000e+03 
874.672  1.24300000e+03 
874.312  1.28100000e+03 
873.953  1.20900000e+03 
873.594  1.25100000e+03 
873.234  1.21900000e+03 
872.875  1.28700000e+03 
872.516  1.22500000e+03 
872.156  1.28700000e+03 
871.797  1.26300000e+03 
871.438  1.34000000e+03 
871.078  1.19700000e+03 
870.719  1.30000000e+03 
870.359  1.22100000e+03 
870.000  1.25600000e+03 
869.641  1.26400000e+03 
869.281  1.23500000e+03 
868.922  1.23100000e+03 
868.562  1.22700000e+03 
868.203  1.25700000e+03 
867.844  1.30900000e+03 
867.484  1.28600000e+03 
867.125  1.21900000e+03 
866.766  1.26500000e+03 
866.406  1.28000000e+03 
866.047  1.29600000e+03 
865.688  1.27700000e+03 
865.328  1.21800000e+03 
864.969  1.20700000e+03 
864.609  1.28400000e+03 
864.250  1.20400000e+03 
863.891  1.26100000e+03 
863.531  1.32900000e+03 
863.172  1.23500000e+03 
862.812  1.24200000e+03 
862.453  1.26400000e+03 
862.094  1.21000000e+03 
861.734  1.32200000e+03 
861.375  1.27200000e+03 
861.016  1.25200000e+03 
860.656  1.26900000e+03 
860.297  1.27600000e+03 
859.938  1.23000000e+03 
859.578  1.28300000e+03 
859.219  1.24300000e+03 
858.859  1.21400000e+03 
858.500  1.19900000e+03 
858.141  1.25400000e+03 
857.781  1.26300000e+03 
857.422  1.25400000e+03 
857.062  1.29900000e+03 
856.703  1.25500000e+03 
856.344  1.23300000e+03 
855.984  1.19300000e+03 
855.625  1.23300000e+03 
855.266  1.31400000e+03 
854.906  1.18000000e+03 
854.547  1.24200000e+03 
854.188  1.29100000e+03 
853.828  1.19400000e+03 
853.469  1.26500000e+03 
853.109  1.25600000e+03 
852.750  1.24800000e+03 
852.391  1.25100000e+03 
852.031  1.20800000e+03 
851.672  1.19900000e+03 
851.312  1.22200000e+03 
850.953  1.22600000e+03 
850.594  1.21600000e+03 
850.234  1.26500000e+03 
849.875  1.23900000e+03 
849.516  1.23000000e+03 
849.156  1.25500000e+03 
848.797  1.18900000e+03 
848.438  1.19500000e+03 
848.078  1.20400000e+03 
847.719  1.18000000e+03 
847.359  1.18700000e+03 
847.000  1.14200000e+03 
846.641  1.21800000e+03 
846.281  1.13300000e+03 
845.922  1.18500000e+03 
845.562  1.23400000e+03 
845.203  1.20400000e+03 
844.844  1.14400000e+03 
844.484  1.19600000e+03 
844.125  1.21500000e+03 
843.766  1.18700000e+03 
843.406  1.17600000e+03 
843.047  1.18600000e+03 
842.688  1.14300000e+03 
842.328  1.18300000e+03 
841.969  1.22700000e+03 
841.609  1.16800000e+03 
841.250  1.18900000e+03 
840.891  1.16000000e+03 
840.531  1.13300000e+03 
840.172  1.24400000e+03 
839.812  1.13600000e+03 
839.453  1.21700000e+03 
839.094  1.23000000e+03 
838.734  1.20400000e+03 
838.375  1.14800000e+03 
838.016  1.24400000e+03 
837.656  1.21200000e+03 
837.297  1.18400000e+03 
836.938  1.17300000e+03 
836.578  1.21200000e+03 
836.219  1.26800000e+03 
835.859  1.12100000e+03 
835.500  1.19700000e+03 
835.141  1.23700000e+03 
834.781  1.11100000e+03 
834.422  1.18900000e+03 
834.062  1.16400000e+03 
833.703  1.15200000e+03 
833.344  1.14300000e+03 
832.984  1.15200000e+03 
832.625  1.14400000e+03 
832.266  1.13900000e+03 
831.906  1.13300000e+03 
831.547  1.15000000e+03 
831.188  1.19000000e+03 
830.828  1.13800000e+03 
830.469  1.14900000e+03 
830.109  1.13900000e+03 
829.750  1.16400000e+03 
829.391  1.14000000e+03 
829.031  1.14600000e+03 
828.672  1.20500000e+03 
828.312  1.12600000e+03 
827.953  1.19800000e+03 
827.594  1.16600000e+03 
827.234  1.17500000e+03 
826.875  1.15300000e+03 
826.516  1.09700000e+03 
826.156  1.16200000e+03 
825.797  1.17600000e+03 
825.438  1.17600000e+03 
825.078  1.15700000e+03 
824.719  1.15000000e+03 
824.359  1.14100000e+03 
824.000  1.10000000e+03 
823.641  1.15600000e+03 
823.281  1.16100000e+03 
822.922  1.10600000e+03 
822.562  1.08300000e+03 
822.203  1.15900000e+03 
821.844  1.11700000e+03 
821.484  1.13600000e+03 
821.125  1.14600000e+03 
820.766  1.20500000e+03 
820.406  1.12100000e+03 
820.047  1.15500000e+03 
819.688  1.14000000e+03 
819.328  1.14100000e+03 
818.969  1.17500000e+03 
818.609  1.11400000e+03 
818.250  1.16000000e+03 
817.891  1.17600000e+03 
817.531  1.11200000e+03 
817.172  1.16000000e+03 
816.812  1.15700000e+03 
816.453  1.15800000e+03 
816.094  1.09400000e+03 
815.734  1.10200000e+03 
815.375  1.14800000e+03 
815.016  1.15400000e+03 
814.656  1.10000000e+03 
814.297  1.12300000e+03 
813.938  1.15900000e+03 
813.578  1.13800000e+03 
813.219  1.11300000e+03 
812.859  1.15700000e+03 
812.500  1.18300000e+03 
812.141  1.18200000e+03 
811.781  1.10000000e+03 
811.422  1.10300000e+03 
811.062  1.16300000e+03 
810.703  1.15500000e+03 
810.344  1.22800000e+03 
809.984  1.08200000e+03 
809.625  1.14000000e+03 
809.266  1.15800000e+03 
808.906  1.18100000e+03 
808.547  1.15300000e+03 
808.188  1.12600000e+03 
807.828  1.26600000e+03 
807.469  1.13600000e+03 
807.109  1.13900000e+03 
806.750  1.12500000e+03 
806.391  1.14300000e+03 
806.031  1.15700000e+03 
805.672  1.14700000e+03 
805.312  1.09000000e+03 
804.953  1.15700000e+03 
804.594  1.14600000e+03 
804.234  1.18400000e+03 
803.875  1.13100000e+03 
803.516  1.11800000e+03 
803.156  1.12200000e+03 
802.797  1.13700000e+03 
802.438  1.15700000e+03 
802.078  1.13000000e+03 
801.719  1.11500000e+03 
801.359  1.18900000e+03 
801.000  1.10300000e+03 
800.641  1.15500000e+03 
800.281  1.13600000e+03 
799.922  1.17300000e+03 
799.562  1.16200000e+03 
799.203  1.15300000e+03 
798.844  1.15400000e+03 
798.484  1.13100000e+03 
798.125  1.08600000e+03 
797.766  1.09100000e+03 
797.406  1.14200000e+03 
797.047  1.10700000e+03 
796.688  1.12600000e+03 
796.328  1.10200000e+03 
795.969  1.10500000e+03 
795.609  1.15300000e+03 
795.250  1.10700000e+03 
794.891  1.12500000e+03 
794.531  1.15400000e+03 
794.172  1.11900000e+03 
793.812  1.11100000e+03 
793.453  1.13900000e+03 
793.094  1.11200000e+03 
792.734  1.12000000e+03 
792.375  1.13100000e+03 
792.016  1.13800000e+03 
791.656  1.10800000e+03 
791.297  1.11300000e+03 
790.938  1.10000000e+03 
790.578  1.15400000e+03 
790.219  1.13700000e+03 
789.859  1.16500000e+03 
789.500  1.11800000e+03 
789.141  1.14800000e+03 
788.781  1.16700000e+03 
788.422  1.13600000e+03 
788.062  1.16800000e+03 
787.703  1.10600000e+03 
787.344  1.11900000e+03 
786.984  1.12000000e+03 
786.625  1.16300000e+03 
786.266  1.12000000e+03 
785.906  1.12800000e+03 
785.547  1.12300000e+03 
785.188  1.11100000e+03 
784.828  1.09600000e+03 
784.469  1.14300000e+03 
784.109  1.11500000e+03 
783.750  1.10900000e+03 
783.391  1.09800000e+03 
783.031  1.12900000e+03 
782.672  1.14900000e+03 
782.312  1.12000000e+03 
781.953  1.13800000e+03 
781.594  1.14700000e+03 
781.234  1.08100000e+03 
780.875  1.10700000e+03 
780.516  1.10300000e+03 
780.156  1.14600000e+03 
779.797  1.09000000e+03 
779.438  1.04800000e+03 
779.078  1.12500000e+03 
778.719  1.10800000e+03 
778.359  1.12600000e+03 
778.000  1.14100000e+03 
777.641  1.12300000e+03 
777.281  1.14500000e+03 
776.922  1.10800000e+03 
776.562  1.12700000e+03 
776.203  1.04000000e+03 
775.844  1.09200000e+03 
775.484  1.11900000e+03 
775.125  1.17300000e+03 
774.766  1.15700000e+03 
774.406  1.10900000e+03 
774.047  1.11000000e+03 
773.688  1.08800000e+03 
773.328  1.11100000e+03 
772.969  1.08200000e+03 
772.609  1.09100000e+03 
772.250  1.09000000e+03 
771.891  1.16300000e+03 
771.531  1.06400000e+03 
771.172  1.06400000e+03 
770.812  1.05800000e+03 
770.453  1.06800000e+03 
770.094  1.09900000e+03 
769.734  1.05100000e+03 
769.375  1.04100000e+03 
769.016  1.05800000e+03 
768.656  1.05700000e+03 
768.297  1.05500000e+03 
767.938  1.17100000e+03 
767.578  1.15900000e+03 
767.219  1.05300000e+03 
766.859  1.09800000e+03 
766.500  1.05800000e+03 
766.141  1.09500000e+03 
765.781  1.07900000e+03 
765.422  1.03400000e+03 
765.062  1.03700000e+03 
764.703  1.05700000e+03 
764.344  1.07600000e+03 
763.984  1.06100000e+03 
763.625  1.03000000e+03 
763.266  1.02700000e+03 
762.906  1.06000000e+03 
762.547  1.09600000e+03 
762.188  1.04500000e+03 
761.828  1.10700000e+03 
761.469  1.10900000e+03 
761.109  1.12900000e+03 
760.750  1.01400000e+03 
760.391  1.05300000e+03 
760.031  1.14200000e+03 
759.672  1.06000000e+03 
759.312  1.05000000e+03 
758.953  1.03500000e+03 
758.594  1.01400000e+03 
758.234  1.04900000e+03 
757.875  1.00900000e+03 
757.516  1.03400000e+03 
757.156  1.14100000e+03 
756.797  1.05000000e+03 
756.438  1.07200000e+03 
756.078  1.02300000e+03 
755.719  1.12400000e+03 
755.359  1.09400000e+03 
755.000  1.06200000e+03 
754.641  1.05800000e+03 
754.281  1.00000000e+03 
753.922  1.06700000e+03 
753.562  1.04300000e+03 
753.203  1.07500000e+03 
752.844  1.06900000e+03 
752.484  1.09300000e+03 
752.125  1.08400000e+03 
751.766  1.06300000e+03 
751.406  1.01600000e+03 
751.047  1.05900000e+03 
750.688  1.10000000e+03 
750.328  1.02500000e+03 
749.969  9.60000000e+02 
749.609  1.03300000e+03 
749.250  1.04400000e+03 
748.891  1.10400000e+03 
748.531  1.09300000e+03 
748.172  1.05600000e+03 
747.812  1.01800000e+03 
747.453  1.09100000e+03 
747.094  1.03700000e+03 
746.734  1.02700000e+03 
746.375  1.09100000e+03 
746.016  1.07100000e+03 
745.656  1.03900000e+03 
745.297  1.04400000e+03 
744.938  1.05500000e+03 
744.578  1.04700000e+03 
744.219  1.13000000e+03 
743.859  1.12700000e+03 
743.500  1.00400000e+03 
743.141  1.05500000e+03 
742.781  1.11500000e+03 
742.422  1.12600000e+03 
742.062  1.04500000e+03 
741.703  1.09800000e+03 
741.344  1.05000000e+03 
740.984  1.05800000e+03 
740.625  1.06600000e+03 
740.266  1.05400000e+03 
739.906  1.00400000e+03 
739.547  1.01500000e+03 
739.188  1.01600000e+03 
738.828  1.06400000e+03 
738.469  1.11400000e+03 
738.109  1.05100000e+03 
737.750  1.04800000e+03 
737.391  1.06100000e+03 
737.031  1.06500000e+03 
736.672  9.98000000e+02 
736.312  1.06900000e+03 
735.953  1.01200000e+03 
735.594  1.07900000e+03 
735.234  1.05000000e+03 
734.875  1.14200000e+03 
734.516  1.03700000e+03 
734.156  1.05200000e+03 
733.797  1.04600000e+03 
733.438  1.07800000e+03 
733.078  9.85000000e+02 
732.719  1.05800000e+03 
732.359  1.06400000e+03 
732.000  1.05600000e+03 
731.641  1.04600000e+03 
731.281  1.07300000e+03 
730.922  1.08800000e+03 
730.562  1.05700000e+03 
730.203  1.01900000e+03 
729.844  1.02900000e+03 
729.484  1.12100000e+03 
729.125  1.12700000e+03 
728.766  1.08700000e+03 
728.406  1.10400000e+03 
728.047  1.09600000e+03 
727.688  1.03700000e+03 
727.328  1.05600000e+03 
726.969  1.07500000e+03 
726.609  1.04700000e+03 
726.250  9.97000000e+02 
725.891  1.00000000e+03 
725.531  1.00100000e+03 
725.172  1.02800000e+03 
724.812  1.02400000e+03 
724.453  1.04500000e+03 
724.094  1.01100000e+03 
723.734  1.05000000e+03 
723.375  1.03900000e+03 
723.016  9.73000000e+02 
722.656  9.66000000e+02 
722.297  1.05100000e+03 
721.938  1.00600000e+03 
721.578  1.01300000e+03 
721.219  1.07000000e+03 
720.859  1.00300000e+03 
720.500  1.00200000e+03 
720.141  1.04700000e+03 
719.781  1.03600000e+03 
719.422  1.06500000e+03 
719.062  1.05700000e+03 
718.703  1.04900000e+03 
718.344  9.99000000e+02 
717.984  1.02900000e+03 
717.625  1.04400000e+03 
717.266  1.01500000e+03 
716.906  1.11400000e+03 
716.547  1.03200000e+03 
716.188  1.13000000e+03 
715.828  1.05400000e+03 
715.469  1.04100000e+03 
715.109  1.05500000e+03 
714.750  1.06200000e+03 
714.391  1.02700000e+03 
714.031  1.04100000e+03 
713.672  1.02300000e+03 
713.312  9.72000000e+02 
712.953  1.04000000e+03 
712.594  9.47000000e+02 
712.234  1.00100000e+03 
711.875  1.01800000e+03 
711.516  1.01300000e+03 
711.156  9.74000000e+02 
710.797  1.03200000e+03 
710.438  1.01500000e+03 
710.078  9.36000000e+02 
709.719  1.03800000e+03 
709.359  9.69000000e+02 
709.000  9.46000000e+02 
708.641  9.38000000e+02 
708.281  1.05200000e+03 
707.922  1.00400000e+03 
707.562  9.35000000e+02 
707.203  1.04500000e+03 
706.844  1.01900000e+03 
706.484  9.94000000e+02 
706.125  1.00400000e+03 
705.766  9.68000000e+02 
705.406  9.69000000e+02 
705.047  1.04200000e+03 
704.688  1.02200000e+03 
704.328  9.72000000e+02 
703.969  9.98000000e+02 
703.609  1.00700000e+03 
703.250  9.91000000e+02 
702.891  9.89000000e+02 
702.531  1.00500000e+03 
702.172  1.04000000e+03 
701.812  9.55000000e+02 
701.453  9.89000000e+02 
701.094  9.91000000e+02 
700.734  1.00700000e+03 
700.375  1.00600000e+03 
700.016  1.00600000e+03 
699.656  9.69000000e+02 
699.297  9.89000000e+02 
698.938  1.02500000e+03 
698.578  9.43000000e+02 
698.219  1.03500000e+03 
697.859  1.01000000e+03 
697.500  9.93000000e+02 
697.141  9.93000000e+02 
696.781  1.02700000e+03 
696.422  1.02900000e+03 
696.062  9.57000000e+02 
695.703  1.05700000e+03 
695.344  1.03600000e+03 
694.984  1.05000000e+03 
694.625  1.05300000e+03 
694.266  1.03600000e+03 
693.906  1.02400000e+03 
693.547  1.03500000e+03 
693.188  1.06000000e+03 
692.828  1.00600000e+03 
692.469  9.82000000e+02 
692.109  1.01900000e+03 
691.750  1.00200000e+03 
691.391  9.65000000e+02 
691.031  1.00500000e+03 
690.672  9.85000000e+02 
690.312  9.58000000e+02 
689.953  9.86000000e+02 
689.594  9.55000000e+02 
689.234  1.01900000e+03 
688.875  9.72000000e+02 
688.516  9.80000000e+02 
688.156  1.08300000e+03 
687.797  1.01700000e+03 
687.438  1.00600000e+03 
687.078  9.08000000e+02 
686.719  9.98000000e+02 
686.359  9.65000000e+02 
686.000  1.01100000e+03 
685.641  9.64000000e+02 
685.281  9.23000000e+02 
684.922  9.63000000e+02 
684.562  1.00500000e+03 
684.203  1.04000000e+03 
683.844  9.75000000e+02 
683.484  9.91000000e+02 
683.125  9.82000000e+02 
682.766  1.02100000e+03 
682.406  1.01600000e+03 
682.047  1.05500000e+03 
681.688  1.01100000e+03 
681.328  1.01200000e+03 
680.969  9.98000000e+02 
680.609  1.04300000e+03 
680.250  9.62000000e+02 
679.891  1.00200000e+03 
679.531  9.82000000e+02 
679.172  1.01700000e+03 
678.812  1.00000000e+03 
678.453  1.02400000e+03 
678.094  9.53000000e+02 
677.734  9.80000000e+02 
677.375  1.00100000e+03 
677.016  1.00700000e+03 
676.656  9.80000000e+02 
676.297  1.00100000e+03 
675.938  1.02600000e+03 
675.578  9.92000000e+02 
675.219  9.69000000e+02 
674.859  1.01800000e+03 
674.500  1.04800000e+03 
674.141  1.05300000e+03 
673.781  9.93000000e+02 
673.422  1.02400000e+03 
673.062  1.05300000e+03 
672.703  9.82000000e+02 
672.344  1.00200000e+03 
671.984  1.05900000e+03 
671.625  1.01100000e+03 
671.266  1.02500000e+03 
670.906  9.66000000e+02 
670.547  9.70000000e+02 
670.188  1.03500000e+03 
669.828  1.01800000e+03 
669.469  1.02600000e+03 
669.109  9.97000000e+02 
668.750  1.06300000e+03 
668.391  9.96000000e+02 
668.031  1.04800000e+03 
667.672  9.88000000e+02 
667.312  9.85000000e+02 
666.953  1.07800000e+03 
666.594  1.02000000e+03 
666.234  1.00800000e+03 
665.875  1.02400000e+03 
665.516  1.01700000e+03 
665.156  1.04900000e+03 
664.797  9.62000000e+02 
664.438  9.44000000e+02 
664.078  9.97000000e+02 
663.719  9.77000000e+02 
663.359  9.23000000e+02 
663.000  1.03000000e+03 
662.641  1.03300000e+03 
662.281  9.88000000e+02 
661.922  9.81000000e+02 
661.562  9.98000000e+02 
661.203  1.04600000e+03 
660.844  9.89000000e+02 
660.484  1.00800000e+03 
660.125  9.89000000e+02 
659.766  1.03900000e+03 
659.406  1.00300000e+03 
659.047  1.07200000e+03 
658.688  1.11400000e+03 
658.328  1.07700000e+03 
657.969  1.15600000e+03 
657.609  1.09400000e+03 
657.250  1.07100000e+03 
656.891  1.03300000e+03 
656.531  1.08300000e+03 
656.172  1.00900000e+03 
655.812  1.01700000e+03 
655.453  1.00200000e+03 
655.094  9.31000000e+02 
654.734  1.02500000e+03 
654.375  9.45000000e+02 
654.016  1.00200000e+03 
653.656  1.00400000e+03 
653.297  1.02800000e+03 
652.938  9.95000000e+02 
652.578  9.56000000e+02 
652.219  9.68000000e+02 
651.859  9.65000000e+02 
651.500  1.00500000e+03 
651.141  1.02300000e+03 
650.781  1.05700000e+03 
650.422  9.61000000e+02 
650.062  1.00300000e+03 
649.703  1.01900000e+03 
649.344  1.02200000e+03 
648.984  1.10600000e+03 
648.625  1.04800000e+03 
648.266  1.09400000e+03 
647.906  1.09100000e+03 
647.547  1.07400000e+03 
647.188  1.10500000e+03 
646.828  1.12400000e+03 
646.469  1.18400000e+03 
646.109  1.15700000e+03 
645.750  1.12000000e+03 
645.391  1.09500000e+03 
645.031  1.06000000e+03 
644.672  1.01800000e+03 
644.312  9.63000000e+02 
643.953  9.72000000e+02 
643.594  9.21000000e+02 
643.234  9.33000000e+02 
642.875  9.16000000e+02 
642.516  9.57000000e+02 
642.156  9.17000000e+02 
641.797  8.71000000e+02 
641.438  9.07000000e+02 
641.078  9.06000000e+02 
640.719  9.20000000e+02 
640.359  9.47000000e+02 
640.000  8.73000000e+02 
639.641  9.24000000e+02 
639.281  9.26000000e+02 
638.922  8.43000000e+02 
638.562  9.40000000e+02 
638.203  8.81000000e+02 
637.844  8.93000000e+02 
637.484  9.24000000e+02 
637.125  8.72000000e+02 
636.766  9.39000000e+02 
636.406  9.14000000e+02 
636.047  8.70000000e+02 
635.688  8.77000000e+02 
635.328  9.59000000e+02 
634.969  9.63000000e+02 
634.609  9.32000000e+02 
634.250  9.08000000e+02 
633.891  9.27000000e+02 
633.531  9.46000000e+02 
633.172  9.02000000e+02 
632.812  8.86000000e+02 
632.453  9.08000000e+02 
632.094  9.25000000e+02 
631.734  8.92000000e+02 
631.375  8.63000000e+02 
631.016  8.67000000e+02 
630.656  9.03000000e+02 
630.297  9.04000000e+02 
629.938  9.55000000e+02 
629.578  9.12000000e+02 
629.219  9.51000000e+02 
628.859  9.24000000e+02 
628.500  9.41000000e+02 
628.141  9.39000000e+02 
627.781  9.18000000e+02 
627.422  9.09000000e+02 
627.062  8.79000000e+02 
626.703  8.96000000e+02 
626.344  9.11000000e+02 
625.984  8.88000000e+02 
625.625  8.98000000e+02 
625.266  9.12000000e+02 
624.906  8.72000000e+02 
624.547  9.63000000e+02 
624.188  8.79000000e+02 
623.828  9.54000000e+02 
623.469  9.39000000e+02 
623.109  9.70000000e+02 
622.750  9.53000000e+02 
622.391  9.23000000e+02 
622.031  9.07000000e+02 
621.672  9.26000000e+02 
621.312  8.94000000e+02 
620.953  9.45000000e+02 
620.594  8.88000000e+02 
620.234  9.07000000e+02 
619.875  9.03000000e+02 
619.516  9.51000000e+02 
619.156  9.15000000e+02 
618.797  9.05000000e+02 
618.438  9.72000000e+02 
618.078  9.58000000e+02 
617.719  8.81000000e+02 
617.359  8.67000000e+02 
617.000  9.34000000e+02 
616.641  9.58000000e+02 
616.281  9.30000000e+02 
615.922  9.30000000e+02 
615.562  9.03000000e+02 
615.203  9.41000000e+02 
614.844  8.98000000e+02 
614.484  8.67000000e+02 
614.125  9.65000000e+02 
613.766  9.28000000e+02 
613.406  9.56000000e+02 
613.047  9.22000000e+02 
612.688  9.30000000e+02 
612.328  9.20000000e+02 
611.969  9.43000000e+02 
611.609  9.13000000e+02 
611.250  9.47000000e+02 
610.891  9.34000000e+02 
610.531  9.17000000e+02 
610.172  9.81000000e+02 
609.812  9.19000000e+02 
609.453  9.75000000e+02 
609.094  8.95000000e+02 
608.734  9.65000000e+02 
608.375  9.31000000e+02 
608.016  9.74000000e+02 
607.656  9.23000000e+02 
607.297  9.22000000e+02 
606.938  9.05000000e+02 
606.578  9.19000000e+02 
606.219  8.92000000e+02 
605.859  9.26000000e+02 
605.500  9.84000000e+02 
605.141  9.65000000e+02 
604.781  9.75000000e+02 
604.422  9.36000000e+02 
604.062  9.03000000e+02 
603.703  9.18000000e+02 
603.344  9.57000000e+02 
602.984  1.00500000e+03 
602.625  9.35000000e+02 
602.266  9.53000000e+02 
601.906  9.76000000e+02 
601.547  9.35000000e+02 
601.188  9.95000000e+02 
600.828  9.59000000e+02 
600.469  9.46000000e+02 
600.109  9.05000000e+02 
599.750  9.17000000e+02 
599.391  9.61000000e+02 
599.031  9.36000000e+02 
598.672  9.49000000e+02 
598.312  9.37000000e+02 
597.953  9.33000000e+02 
597.594  8.94000000e+02 
597.234  9.60000000e+02 
596.875  9.46000000e+02 
596.516  9.48000000e+02 
596.156  9.47000000e+02 
595.797  9.39000000e+02 
595.438  9.68000000e+02 
595.078  9.54000000e+02 
594.719  9.77000000e+02 
594.359  9.88000000e+02 
594.000  9.44000000e+02 
593.641  9.54000000e+02 
593.281  9.35000000e+02 
592.922  8.98000000e+02 
592.562  9.32000000e+02 
592.203  9.46000000e+02 
591.844  9.62000000e+02 
591.484  9.22000000e+02 
591.125  8.98000000e+02 
590.766  1.01000000e+03 
590.406  9.71000000e+02 
590.047  8.97000000e+02 
589.688  9.03000000e+02 
589.328  9.13000000e+02 
588.969  9.65000000e+02 
588.609  9.48000000e+02 
588.250  9.69000000e+02 
587.891  9.18000000e+02 
587.531  9.23000000e+02 
587.172  9.32000000e+02 
586.812  9.31000000e+02 
586.453  9.35000000e+02 
586.094  9.50000000e+02 
585.734  9.46000000e+02 
585.375  8.74000000e+02 
585.016  9.71000000e+02 
584.656  9.39000000e+02 
584.297  9.56000000e+02 
583.938  9.57000000e+02 
583.578  9.97000000e+02 
583.219  1.00800000e+03 
582.859  9.77000000e+02 
582.500  9.53000000e+02 
582.141  9.27000000e+02 
581.781  9.66000000e+02 
581.422  9.94000000e+02 
581.062  1.03700000e+03 
580.703  9.74000000e+02 
580.344  9.65000000e+02 
579.984  9.87000000e+02 
579.625  9.33000000e+02 
579.266  9.27000000e+02 
578.906  9.35000000e+02 
578.547  9.46000000e+02 
578.188  9.68000000e+02 
577.828  9.68000000e+02 
577.469  9.22000000e+02 
577.109  8.91000000e+02 
576.750  9.28000000e+02 
576.391  9.05000000e+02 
576.031  9.25000000e+02 
575.672  9.78000000e+02 
575.312  9.43000000e+02 
574.953  9.07000000e+02 
574.594  9.65000000e+02 
574.234  9.42000000e+02 
573.875  9.33000000e+02 
573.516  9.53000000e+02 
573.156  9.85000000e+02 
572.797  9.02000000e+02 
572.438  9.06000000e+02 
572.078  8.82000000e+02 
571.719  9.09000000e+02 
571.359  9.85000000e+02 
571.000  9.25000000e+02 
570.641  9.51000000e+02 
570.281  9.10000000e+02 
569.922  9.80000000e+02 
569.562  9.32000000e+02 
569.203  1.01500000e+03 
568.844  9.44000000e+02 
568.484  9.49000000e+02 
568.125  1.02800000e+03 
567.766  1.00600000e+03 
567.406  1.00300000e+03 
567.047  9.09000000e+02 
566.688  9.10000000e+02 
566.328  9.35000000e+02 
565.969  9.34000000e+02 
565.609  9.83000000e+02 
565.250  9.17000000e+02 
564.891  9.82000000e+02 
564.531  9.52000000e+02 
564.172  9.83000000e+02 
563.812  8.81000000e+02 
563.453  9.86000000e+02 
563.094  9.77000000e+02 
562.734  9.95000000e+02 
562.375  9.91000000e+02 
562.016  9.53000000e+02 
561.656  9.72000000e+02 
561.297  1.00600000e+03 
560.938  9.83000000e+02 
560.578  9.49000000e+02 
560.219  9.72000000e+02 
559.859  9.62000000e+02 
559.500  1.01900000e+03 
559.141  1.00100000e+03 
558.781  1.01800000e+03 
558.422  1.01800000e+03 
558.062  9.62000000e+02 
557.703  9.72000000e+02 
557.344  9.84000000e+02 
556.984  9.97000000e+02 
556.625  9.50000000e+02 
556.266  9.71000000e+02 
555.906  9.20000000e+02 
555.547  9.47000000e+02 
555.188  9.18000000e+02 
554.828  9.79000000e+02 
554.469  8.60000000e+02 
554.109  8.77000000e+02 
553.750  9.08000000e+02 
553.391  8.87000000e+02 
553.031  9.08000000e+02 
552.672  9.04000000e+02 
552.312  8.74000000e+02 
551.953  8.80000000e+02 
551.594  8.91000000e+02 
551.234  8.89000000e+02 
550.875  9.10000000e+02 
550.516  8.90000000e+02 
550.156  8.53000000e+02 
549.797  8.10000000e+02 
549.438  8.16000000e+02 
549.078  8.03000000e+02 
548.719  7.93000000e+02 
548.359  8.24000000e+02 
548.000  8.24000000e+02 
547.641  8.24000000e+02 
547.281  8.08000000e+02 
546.922  7.45000000e+02 
546.562  8.29000000e+02 
546.203  7.98000000e+02 
545.844  8.01000000e+02 
545.484  7.63000000e+02 
545.125  7.57000000e+02 
544.766  7.26000000e+02 
544.406  7.19000000e+02 
544.047  6.93000000e+02 
543.688  6.65000000e+02 
543.328  7.05000000e+02 
542.969  6.65000000e+02 
542.609  6.75000000e+02 
542.250  7.03000000e+02 
541.891  7.35000000e+02 
541.531  6.93000000e+02 
541.172  7.68000000e+02 
540.812  7.24000000e+02 
540.453  7.97000000e+02 
540.094  8.28000000e+02 
539.734  8.72000000e+02 
539.375  8.73000000e+02 
539.016  8.25000000e+02 
538.656  9.54000000e+02 
538.297  9.55000000e+02 
537.938  1.25200000e+03 
537.578  1.45900000e+03 
537.219  1.75700000e+03 
536.859  2.23500000e+03 
536.500  2.80300000e+03 
536.141  3.22500000e+03 
535.781  3.32900000e+03 
535.422  2.84800000e+03 
535.062  2.31100000e+03 
534.703  1.66100000e+03 
534.344  1.26400000e+03 
533.984  1.00100000e+03 
533.625  8.22000000e+02 
533.266  6.96000000e+02 
532.906  6.38000000e+02 
532.547  5.66000000e+02 
532.188  5.62000000e+02 
531.828  4.72000000e+02 
531.469  5.04000000e+02 
531.109  4.73000000e+02 
530.750  4.88000000e+02 
530.391  5.64000000e+02 
530.031  5.18000000e+02 
529.672  5.28000000e+02 
529.312  5.42000000e+02 
528.953  5.02000000e+02 
528.594  5.46000000e+02 
528.234  5.46000000e+02 
527.875  5.20000000e+02 
527.516  5.50000000e+02 
527.156  5.42000000e+02 
526.797  5.39000000e+02 
526.438  5.28000000e+02 
526.078  5.31000000e+02 
525.719  5.70000000e+02 
525.359  5.49000000e+02 
525.000  4.99000000e+02 
524.641  5.33000000e+02 
524.281  4.92000000e+02 
523.922  5.13000000e+02 
523.562  5.35000000e+02 
523.203  5.13000000e+02 
522.844  4.82000000e+02 
522.484  5.68000000e+02 
522.125  4.71000000e+02 
521.766  4.73000000e+02 
521.406  5.01000000e+02 
521.047  5.17000000e+02 
520.688  5.04000000e+02 
520.328  4.62000000e+02 
519.969  4.76000000e+02 
519.609  4.89000000e+02 
519.250  4.84000000e+02 
518.891  5.14000000e+02 
518.531  4.94000000e+02 
518.172  4.97000000e+02 
517.812  4.88000000e+02 
517.453  4.84000000e+02 
517.094  4.73000000e+02 
516.734  4.93000000e+02 
516.375  4.73000000e+02 
516.016  4.78000000e+02 
515.656  4.74000000e+02 
515.297  4.54000000e+02 
514.938  4.67000000e+02 
514.578  4.80000000e+02 
514.219  4.91000000e+02 
513.859  4.53000000e+02 
513.500  4.81000000e+02 
513.141  4.90000000e+02 
512.781  4.73000000e+02 
512.422  4.92000000e+02 
512.062  5.29000000e+02 
511.703  4.60000000e+02 
511.344  4.91000000e+02 
510.984  4.55000000e+02 
510.625  4.72000000e+02 
510.266  4.48000000e+02 
509.906  4.59000000e+02 
509.547  4.68000000e+02 
509.187  4.47000000e+02 
508.828  4.66000000e+02 
508.469  4.00000000e+02 
508.109  4.34000000e+02 
507.750  4.33000000e+02 
507.391  4.31000000e+02 
507.031  4.86000000e+02 
506.672  4.77000000e+02 
506.312  5.03000000e+02 
505.953  5.55000000e+02 
505.594  5.20000000e+02 
505.234  5.52000000e+02 
504.875  5.11000000e+02 
504.516  5.30000000e+02 
504.156  5.17000000e+02 
503.797  5.20000000e+02 
503.437  6.25000000e+02 
503.078  6.19000000e+02 
502.719  7.07000000e+02 
502.359  8.33000000e+02 
502.000  9.44000000e+02 
501.641  1.14000000e+03 
501.281  1.26600000e+03 
500.922  1.18100000e+03 
500.562  1.08700000e+03 
500.203  9.67000000e+02 
499.844  7.94000000e+02 
499.484  6.11000000e+02 
499.125  4.82000000e+02 
498.766  4.20000000e+02 
498.406  4.06000000e+02 
498.047  3.76000000e+02 
497.687  3.78000000e+02 
497.328  3.28000000e+02 
496.969  2.98000000e+02 
496.609  3.31000000e+02 
496.250  3.35000000e+02 
495.891  3.14000000e+02 
495.531  3.11000000e+02 
495.172  3.22000000e+02 
494.812  3.21000000e+02 
494.453  3.04000000e+02 
494.094  3.23000000e+02 
493.734  3.25000000e+02 
493.375  2.64000000e+02 
493.016  3.06000000e+02 
492.656  2.86000000e+02 
492.297  3.00000000e+02 
491.937  2.99000000e+02 
491.578  3.12000000e+02 
491.219  3.16000000e+02 
490.859  3.29000000e+02 
490.500  3.04000000e+02 
490.141  2.91000000e+02 
489.781  2.98000000e+02 
489.422  3.00000000e+02 
489.062  3.04000000e+02 
488.703  3.01000000e+02 
488.344  2.95000000e+02 
487.984  3.16000000e+02 
487.625  2.86000000e+02 
487.266  3.29000000e+02 
486.906  2.96000000e+02 
486.547  2.80000000e+02 
486.187  3.27000000e+02 
485.828  3.02000000e+02 
485.469  2.93000000e+02 
485.109  2.92000000e+02 
484.750  2.98000000e+02 
484.391  2.98000000e+02 
484.031  3.38000000e+02 
483.672  2.96000000e+02 
483.312  3.17000000e+02 
482.953  3.02000000e+02 
482.594  3.35000000e+02 
482.234  3.41000000e+02 
481.875  3.17000000e+02 
481.516  3.29000000e+02 
481.156  2.81000000e+02 
480.797  2.96000000e+02 
480.437  3.15000000e+02 
480.078  3.57000000e+02 
479.719  3.18000000e+02 
479.359  2.97000000e+02 
479.000  3.33000000e+02 
478.641  3.03000000e+02 
478.281  2.75000000e+02 
477.922  3.27000000e+02 
477.562  3.17000000e+02 
477.203  2.84000000e+02 
476.844  2.81000000e+02 
476.484  2.94000000e+02 
476.125  3.19000000e+02 
475.766  3.06000000e+02 
475.406  3.03000000e+02 
475.047  3.16000000e+02 
474.687  3.08000000e+02 
474.328  3.22000000e+02 
473.969  3.04000000e+02 
473.609  2.99000000e+02 
473.250  3.13000000e+02 
472.891  3.19000000e+02 
472.531  3.05000000e+02 
472.172  3.22000000e+02 
471.812  3.08000000e+02 
471.453  3.20000000e+02 
471.094  2.59000000e+02 
470.734  2.97000000e+02 
470.375  3.12000000e+02 
470.016  3.04000000e+02 
469.656  3.01000000e+02 
469.297  2.90000000e+02 
468.937  3.23000000e+02 
468.578  3.25000000e+02 
468.219  3.23000000e+02 
467.859  3.13000000e+02 
467.500  3.12000000e+02 
467.141  3.02000000e+02 
466.781  3.08000000e+02 
466.422  2.93000000e+02 
466.062  2.77000000e+02 
465.703  3.21000000e+02 
465.344  3.08000000e+02 
464.984  3.05000000e+02 
464.625  2.96000000e+02 
464.266  3.22000000e+02 
463.906  2.95000000e+02 
463.547  2.81000000e+02 
463.187  3.35000000e+02 
462.828  3.19000000e+02 
462.469  3.34000000e+02 
462.109  3.28000000e+02 
461.750  3.20000000e+02 
461.391  3.14000000e+02 
461.031  3.02000000e+02 
460.672  2.85000000e+02 
460.312  2.61000000e+02 
459.953  3.28000000e+02 
459.594  3.21000000e+02 
459.234  3.14000000e+02 
458.875  3.23000000e+02 
458.516  3.21000000e+02 
458.156  3.17000000e+02 
457.797  3.22000000e+02 
457.437  3.11000000e+02 
457.078  3.02000000e+02 
456.719  3.08000000e+02 
456.359  2.99000000e+02 
456.000  2.93000000e+02 
455.641  2.70000000e+02 
455.281  3.08000000e+02 
454.922  3.15000000e+02 
454.562  3.36000000e+02 
454.203  3.00000000e+02 
453.844  3.15000000e+02 
453.484  2.95000000e+02 
453.125  3.15000000e+02 
452.766  2.77000000e+02 
452.406  2.79000000e+02 
452.047  2.62000000e+02 
451.687  3.06000000e+02 
451.328  3.38000000e+02 
450.969  3.03000000e+02 
450.609  3.07000000e+02 
450.250  3.10000000e+02 
449.891  2.89000000e+02 
449.531  2.98000000e+02 
449.172  2.96000000e+02 
448.812  2.97000000e+02 
448.453  3.12000000e+02 
448.094  2.88000000e+02 
447.734  2.93000000e+02 
447.375  3.14000000e+02 
447.016  3.14000000e+02 
446.656  3.59000000e+02 
446.297  3.18000000e+02 
445.937  2.78000000e+02 
445.578  3.28000000e+02 
445.219  3.11000000e+02 
444.859  3.07000000e+02 
444.500  3.24000000e+02 
444.141  3.65000000e+02 
443.781  3.37000000e+02 
443.422  3.68000000e+02 
443.062  3.68000000e+02 
442.703  3.48000000e+02 
442.344  3.34000000e+02 
441.984  3.12000000e+02 
441.625  3.21000000e+02 
441.266  2.89000000e+02 
440.906  3.05000000e+02 
440.547  3.25000000e+02 
440.187  3.34000000e+02 
439.828  3.23000000e+02 
439.469  3.06000000e+02 
439.109  3.01000000e+02 
438.750  2.98000000e+02 
438.391  2.89000000e+02 
438.031  3.15000000e+02 
437.672  2.94000000e+02 
437.312  3.36000000e+02 
436.953  2.80000000e+02 
436.594  3.52000000e+02 
436.234  3.01000000e+02 
435.875  3.08000000e+02 
435.516  3.32000000e+02 
435.156  2.88000000e+02 
434.797  2.92000000e+02 
434.437  3.02000000e+02 
434.078  2.88000000e+02 
433.719  3.08000000e+02 
433.359  2.64000000e+02 
433.000  3.00000000e+02 
432.641  3.08000000e+02 
432.281  3.01000000e+02 
431.922  3.06000000e+02 
431.562  2.89000000e+02 
431.203  2.96000000e+02 
430.844  3.20000000e+02 
430.484  2.87000000e+02 
430.125  3.17000000e+02 
429.766  3.14000000e+02 
429.406  2.82000000e+02 
429.047  3.17000000e+02 
428.687  2.81000000e+02 
428.328  2.89000000e+02 
427.969  3.18000000e+02 
427.609  3.06000000e+02 
427.250  2.99000000e+02 
426.891  3.34000000e+02 
426.531  2.81000000e+02 
426.172  2.69000000e+02 
425.812  3.29000000e+02 
425.453  2.91000000e+02 
425.094  3.06000000e+02 
424.734  2.77000000e+02 
424.375  2.87000000e+02 
424.016  3.07000000e+02 
423.656  3.08000000e+02 
423.297  3.10000000e+02 
422.937  3.02000000e+02 
422.578  3.07000000e+02 
422.219  2.81000000e+02 
421.859  3.22000000e+02 
421.500  2.97000000e+02 
421.141  2.83000000e+02 
420.781  3.23000000e+02 
420.422  3.16000000e+02 
420.062  3.55000000e+02 
419.703  2.93000000e+02 
419.344  3.47000000e+02 
418.984  3.43000000e+02 
418.625  3.34000000e+02 
418.266  2.82000000e+02 
417.906  3.40000000e+02 
417.547  3.18000000e+02 
417.187  3.15000000e+02 
416.828  3.13000000e+02 
416.469  3.16000000e+02 
416.109  2.63000000e+02 
415.750  3.27000000e+02 
415.391  3.00000000e+02 
415.031  3.15000000e+02 
414.672  3.03000000e+02 
414.312  3.06000000e+02 
413.953  2.87000000e+02 
413.594  3.00000000e+02 
413.234  3.18000000e+02 
412.875  3.13000000e+02 
412.516  3.16000000e+02 
412.156  3.00000000e+02 
411.797  3.18000000e+02 
411.437  3.33000000e+02 
411.078  2.93000000e+02 
410.719  3.22000000e+02 
410.359  3.16000000e+02 
410.000  2.84000000e+02 
409.641  3.06000000e+02 
409.281  3.22000000e+02 
408.922  2.87000000e+02 
408.562  2.88000000e+02 
408.203  3.07000000e+02 
407.844  2.97000000e+02 
407.484  3.18000000e+02 
407.125  3.38000000e+02 
406.766  3.13000000e+02 
406.406  3.49000000e+02 
406.047  3.46000000e+02 
405.687  3.03000000e+02 
405.328  3.54000000e+02 
404.969  3.39000000e+02 
404.609  3.84000000e+02 
404.250  3.79000000e+02 
403.891  3.69000000e+02 
403.531  3.38000000e+02 
403.172  3.24000000e+02 
402.812  3.12000000e+02 
402.453  3.01000000e+02 
402.094  3.02000000e+02 
401.734  3.28000000e+02 
401.375  3.35000000e+02 
401.016  3.18000000e+02 
400.656  2.99000000e+02 
400.297  3.35000000e+02 
399.937  2.99000000e+02 
399.578  2.99000000e+02 
399.219  2.86000000e+02 
398.859  3.09000000e+02 
398.500  2.96000000e+02 
398.141  2.89000000e+02 
397.781  2.77000000e+02 
397.422  3.03000000e+02 
397.062  2.80000000e+02 
396.703  3.04000000e+02 
396.344  3.10000000e+02 
395.984  2.84000000e+02 
395.625  2.95000000e+02 
395.266  3.14000000e+02 
394.906  3.04000000e+02 
394.547  3.02000000e+02 
394.187  2.84000000e+02 
393.828  3.13000000e+02 
393.469  2.90000000e+02 
393.109  3.14000000e+02 
392.750  3.12000000e+02 
392.391  2.98000000e+02 
392.031  2.75000000e+02 
391.672  3.01000000e+02 
391.312  3.25000000e+02 
390.953  2.94000000e+02 
390.594  3.40000000e+02 
390.234  3.12000000e+02 
389.875  2.99000000e+02 
389.516  2.92000000e+02 
389.156  3.03000000e+02 
388.797  3.03000000e+02 
388.437  3.05000000e+02 
388.078  2.81000000e+02 
387.719  2.97000000e+02 
387.359  3.03000000e+02 
387.000  3.09000000e+02 
386.641  3.15000000e+02 
386.281  2.85000000e+02 
385.922  2.88000000e+02 
385.562  3.15000000e+02 
385.203  3.12000000e+02 
384.844  3.19000000e+02 
384.484  2.93000000e+02 
384.125  3.24000000e+02 
383.766  3.02000000e+02 
383.406  3.22000000e+02 
383.047  3.39000000e+02 
382.687  3.50000000e+02 
382.328  3.32000000e+02 
381.969  3.28000000e+02 
381.609  3.01000000e+02 
381.250  3.05000000e+02 
380.891  3.20000000e+02 
380.531  3.34000000e+02 
380.172  2.99000000e+02 
379.812  3.65000000e+02 
379.453  3.08000000e+02 
379.094  2.79000000e+02 
378.734  3.42000000e+02 
378.375  3.15000000e+02 
378.016  3.12000000e+02 
377.656  3.34000000e+02 
377.297  2.82000000e+02 
376.937  2.96000000e+02 
376.578  3.00000000e+02 
376.219  3.01000000e+02 
375.859  3.03000000e+02 
375.500  3.27000000e+02 
375.141  2.85000000e+02 
374.781  3.04000000e+02 
374.422  2.99000000e+02 
374.062  3.22000000e+02 
373.703  3.08000000e+02 
373.344  3.05000000e+02 
372.984  3.04000000e+02 
372.625  3.25000000e+02 
372.266  2.88000000e+02 
371.906  3.08000000e+02 
371.547  3.04000000e+02 
371.187  3.26000000e+02 
370.828  3.01000000e+02 
370.469  2.84000000e+02 
370.109  2.87000000e+02 
369.750  2.97000000e+02 
369.391  3.09000000e+02 
369.031  3.39000000e+02 
368.672  3.11000000e+02 
368.312  3.21000000e+02 
367.953  3.12000000e+02 
367.594  3.17000000e+02 
367.234  3.04000000e+02 
366.875  3.23000000e+02 
366.516  3.30000000e+02 
366.156  2.94000000e+02 
365.797  2.89000000e+02 
365.437  3.12000000e+02 
365.078  2.94000000e+02 
364.719  3.10000000e+02 
364.359  3.00000000e+02 
364.000  2.85000000e+02 
363.641  2.95000000e+02 
363.281  3.12000000e+02 
362.922  3.23000000e+02 
362.562  3.21000000e+02 
362.203  3.37000000e+02 
361.844  3.00000000e+02 
361.484  3.23000000e+02 
361.125  2.98000000e+02 
360.766  2.99000000e+02 
360.406  3.12000000e+02 
360.047  3.39000000e+02 
359.687  3.02000000e+02 
359.328  2.91000000e+02 
358.969  3.26000000e+02 
358.609  2.98000000e+02 
358.250  2.88000000e+02 
357.891  3.31000000e+02 
357.531  3.09000000e+02 
357.172  3.33000000e+02 
356.812  3.09000000e+02 
356.453  3.55000000e+02 
356.094  3.13000000e+02 
355.734  3.75000000e+02 
355.375  4.07000000e+02 
355.016  4.06000000e+02 
354.656  3.98000000e+02 
354.297  3.44000000e+02 
353.937  3.67000000e+02 
353.578  3.16000000e+02 
353.219  3.31000000e+02 
352.859  3.54000000e+02 
352.500  3.73000000e+02 
352.141  4.07000000e+02 
351.781  4.35000000e+02 
351.422  4.32000000e+02 
351.062  4.30000000e+02 
350.703  4.06000000e+02 
350.344  3.33000000e+02 
349.984  3.22000000e+02 
349.625  2.88000000e+02 
349.266  2.99000000e+02 
348.906  3.00000000e+02 
348.547  3.29000000e+02 
348.187  2.60000000e+02 
347.828  2.84000000e+02 
347.469  3.16000000e+02 
347.109  3.04000000e+02 
346.750  3.14000000e+02 
346.391  2.71000000e+02 
346.031  2.97000000e+02 
345.672  3.37000000e+02 
345.312  3.14000000e+02 
344.953  3.19000000e+02 
344.594  3.38000000e+02 
344.234  2.78000000e+02 
343.875  2.89000000e+02 
343.516  2.87000000e+02 
343.156  3.17000000e+02 
342.797  3.17000000e+02 
342.437  3.08000000e+02 
342.078  3.16000000e+02 
341.719  3.15000000e+02 
341.359  2.65000000e+02 
341.000  3.19000000e+02 
340.641  3.09000000e+02 
340.281  2.71000000e+02 
339.922  3.34000000e+02 
339.562  3.03000000e+02 
339.203  3.25000000e+02 
338.844  3.06000000e+02 
338.484  3.15000000e+02 
338.125  2.99000000e+02 
337.766  3.15000000e+02 
337.406  2.92000000e+02 
337.047  3.21000000e+02 
336.687  3.31000000e+02 
336.328  3.08000000e+02 
335.969  3.51000000e+02 
335.609  3.27000000e+02 
335.250  2.94000000e+02 
334.891  3.33000000e+02 
334.531  3.02000000e+02 
334.172  3.19000000e+02 
333.812  3.00000000e+02 
333.453  3.24000000e+02 
333.094  3.15000000e+02 
332.734  3.30000000e+02 
332.375  3.28000000e+02 
332.016  2.77000000e+02 
331.656  3.56000000e+02 
331.297  3.13000000e+02 
330.937  3.05000000e+02 
330.578  3.13000000e+02 
330.219  3.21000000e+02 
329.859  2.98000000e+02 
329.500  3.25000000e+02 
329.141  3.25000000e+02 
328.781  3.09000000e+02 
328.422  3.34000000e+02 
328.062  3.16000000e+02 
327.703  3.00000000e+02 
327.344  3.20000000e+02 
326.984  3.45000000e+02 
326.625  2.87000000e+02 
326.266  3.27000000e+02 
325.906  3.09000000e+02 
325.547  3.38000000e+02 
325.187  3.22000000e+02 
324.828  3.20000000e+02 
324.469  3.30000000e+02 
324.109  3.35000000e+02 
323.750  2.93000000e+02 
323.391  3.19000000e+02 
323.031  2.99000000e+02 
322.672  3.40000000e+02 
322.312  3.34000000e+02 
321.953  3.25000000e+02 
321.594  3.14000000e+02 
321.234  3.28000000e+02 
320.875  3.43000000e+02 
320.516  2.94000000e+02 
320.156  3.21000000e+02 
319.797  3.43000000e+02 
319.437  3.09000000e+02 
319.078  3.23000000e+02 
318.719  3.14000000e+02 
318.359  3.49000000e+02 
318.000  3.26000000e+02 
317.641  3.36000000e+02 
317.281  3.00000000e+02 
316.922  3.20000000e+02 
316.562  3.44000000e+02 
316.203  3.14000000e+02 
315.844  3.14000000e+02 
315.484  3.40000000e+02 
315.125  3.40000000e+02 
314.766  3.48000000e+02 
314.406  3.15000000e+02 
314.047  3.59000000e+02 
313.687  3.23000000e+02 
313.328  3.35000000e+02 
312.969  3.45000000e+02 
312.609  3.26000000e+02 
312.250  3.33000000e+02 
311.891  3.68000000e+02 
311.531  4.16000000e+02 
311.172  4.05000000e+02 
310.812  4.27000000e+02 
310.453  4.29000000e+02 
310.094  4.59000000e+02 
309.734  4.39000000e+02 
309.375  3.76000000e+02 
309.016  3.46000000e+02 
308.656  3.61000000e+02 
308.297  3.42000000e+02 
307.937  3.07000000e+02 
307.578  3.08000000e+02 
307.219  3.14000000e+02 
306.859  3.05000000e+02 
306.500  3.03000000e+02 
306.141  3.24000000e+02 
305.781  2.64000000e+02 
305.422  3.16000000e+02 
305.062  3.00000000e+02 
304.703  2.70000000e+02 
304.344  3.20000000e+02 
303.984  3.10000000e+02 
303.625  2.87000000e+02 
303.266  2.79000000e+02 
302.906  2.92000000e+02 
302.547  3.00000000e+02 
302.187  2.83000000e+02 
301.828  2.97000000e+02 
301.469  2.63000000e+02 
301.109  2.67000000e+02 
300.750  2.86000000e+02 
300.391  2.99000000e+02 
300.031  3.00000000e+02 
299.672  3.11000000e+02 
299.312  2.66000000e+02 
298.953  2.62000000e+02 
298.594  3.03000000e+02 
298.234  2.77000000e+02 
297.875  2.96000000e+02 
297.516  2.70000000e+02 
297.156  3.10000000e+02 
296.797  2.84000000e+02 
296.437  2.67000000e+02 
296.078  2.42000000e+02 
295.719  2.30000000e+02 
295.359  2.44000000e+02 
295.000  2.82000000e+02 
294.641  3.08000000e+02 
294.281  3.47000000e+02 
293.922  4.24000000e+02 
293.562  4.71000000e+02 
293.203  4.78000000e+02 
292.844  5.22000000e+02 
292.484  5.21000000e+02 
292.125  4.60000000e+02 
291.766  4.46000000e+02 
291.406  4.59000000e+02 
291.047  4.83000000e+02 
290.687  5.77000000e+02 
290.328  6.45000000e+02 
289.969  8.21000000e+02 
289.609  1.01700000e+03 
289.250  1.11200000e+03 
288.891  1.05100000e+03 
288.531  8.00000000e+02 
288.172  4.94000000e+02 
287.812  3.14000000e+02 
287.453  2.36000000e+02 
287.094  2.22000000e+02 
286.734  2.30000000e+02 
286.375  1.92000000e+02 
286.016  1.88000000e+02 
285.656  2.08000000e+02 
285.297  1.92000000e+02 
284.937  2.29000000e+02 
284.578  2.15000000e+02 
284.219  1.96000000e+02 
283.859  2.06000000e+02 
283.500  2.11000000e+02 
283.141  1.71000000e+02 
282.781  2.03000000e+02 
282.422  2.07000000e+02 
282.062  1.98000000e+02 
281.703  2.01000000e+02 
281.344  1.61000000e+02 
280.984  1.90000000e+02 
280.625  1.97000000e+02 
280.266  1.95000000e+02 
279.906  1.74000000e+02 
279.547  2.15000000e+02 
279.187  1.69000000e+02 
278.828  1.95000000e+02 
278.469  1.64000000e+02 
278.109  2.12000000e+02 
277.750  2.10000000e+02 
277.391  2.17000000e+02 
277.031  1.84000000e+02 
276.672  1.91000000e+02 
276.312  1.91000000e+02 
275.953  2.00000000e+02 
275.594  2.19000000e+02 
275.234  2.03000000e+02 
274.875  1.92000000e+02 
274.516  1.98000000e+02 
274.156  1.94000000e+02 
273.797  2.00000000e+02 
273.437  1.85000000e+02 
273.078  2.00000000e+02 
272.719  2.05000000e+02 
272.359  2.05000000e+02 
272.000  1.99000000e+02 
271.641  2.01000000e+02 
271.281  2.20000000e+02 
270.922  1.73000000e+02 
270.562  1.88000000e+02 
270.203  1.95000000e+02 
269.844  1.93000000e+02 
269.484  1.90000000e+02 
269.125  1.99000000e+02 
268.766  1.83000000e+02 
268.406  2.01000000e+02 
268.047  1.73000000e+02 
267.687  1.87000000e+02 
267.328  1.73000000e+02 
266.969  1.93000000e+02 
266.609  1.69000000e+02 
266.250  1.89000000e+02 
265.891  1.74000000e+02 
265.531  1.75000000e+02 
265.172  2.04000000e+02 
264.812  2.05000000e+02 
264.453  2.12000000e+02 
264.094  1.66000000e+02 
263.734  1.88000000e+02 
263.375  2.07000000e+02 
263.016  2.00000000e+02 
262.656  1.77000000e+02 
262.297  1.91000000e+02 
261.937  1.81000000e+02 
261.578  1.86000000e+02 
261.219  1.83000000e+02 
260.859  2.05000000e+02 
260.500  1.87000000e+02 
260.141  1.93000000e+02 
259.781  2.13000000e+02 
259.422  2.15000000e+02 
259.062  1.79000000e+02 
258.703  1.88000000e+02 
258.344  2.22000000e+02 
257.984  1.95000000e+02 
257.625  2.12000000e+02 
257.266  1.82000000e+02 
256.906  2.02000000e+02 
256.547  1.84000000e+02 
256.187  1.76000000e+02 
255.828  1.92000000e+02 
255.469  1.93000000e+02 
255.109  1.81000000e+02 
254.750  1.81000000e+02 
254.391  1.93000000e+02 
254.031  1.98000000e+02 
253.672  1.93000000e+02 
253.312  2.09000000e+02 
252.953  1.87000000e+02 
252.594  1.96000000e+02 
252.234  1.76000000e+02 
251.875  1.89000000e+02 
251.516  2.06000000e+02 
251.156  1.93000000e+02 
250.797  1.75000000e+02 
250.437  1.92000000e+02 
250.078  1.73000000e+02 
249.719  2.02000000e+02 
249.359  1.79000000e+02 
249.000  1.98000000e+02 
248.641  1.67000000e+02 
248.281  2.01000000e+02 
247.922  1.68000000e+02 
247.562  1.82000000e+02 
247.203  1.78000000e+02 
246.844  2.00000000e+02 
246.484  2.12000000e+02 
246.125  1.90000000e+02 
245.766  1.97000000e+02 
245.406  1.89000000e+02 
245.047  1.98000000e+02 
244.687  1.91000000e+02 
244.328  1.98000000e+02 
243.969  1.60000000e+02 
243.609  1.83000000e+02 
243.250  1.84000000e+02 
242.891  1.74000000e+02 
242.531  1.72000000e+02 
242.172  1.79000000e+02 
241.812  1.77000000e+02 
241.453  1.70000000e+02 
241.094  1.88000000e+02 
240.734  1.90000000e+02 
240.375  2.15000000e+02 
240.016  1.99000000e+02 
239.656  2.17000000e+02 
239.297  2.05000000e+02 
238.937  1.93000000e+02 
238.578  2.01000000e+02 
238.219  2.27000000e+02 
237.859  2.34000000e+02 
237.500  2.40000000e+02 
237.141  2.63000000e+02 
236.781  2.48000000e+02 
236.422  2.68000000e+02 
236.062  2.48000000e+02 
235.703  2.09000000e+02 
235.344  2.15000000e+02 
234.984  2.04000000e+02 
234.625  2.20000000e+02 
234.266  1.85000000e+02 
233.906  1.93000000e+02 
233.547  1.74000000e+02 
233.187  1.87000000e+02 
232.828  2.06000000e+02 
232.469  1.85000000e+02 
232.109  1.60000000e+02 
231.750  1.79000000e+02 
231.391  1.78000000e+02 
231.031  1.74000000e+02 
230.672  1.81000000e+02 
230.312  1.89000000e+02 
229.953  1.62000000e+02 
229.594  1.90000000e+02 
229.234  1.69000000e+02 
228.875  1.78000000e+02 
228.516  1.87000000e+02 
228.156  1.90000000e+02 
227.797  1.74000000e+02 
227.437  1.79000000e+02 
227.078  1.79000000e+02 
226.719  2.01000000e+02 
226.359  1.89000000e+02 
226.000  1.88000000e+02 
225.641  1.91000000e+02 
225.281  1.84000000e+02 
224.922  1.91000000e+02 
224.562  2.01000000e+02 
224.203  1.80000000e+02 
223.844  1.74000000e+02 
223.484  1.80000000e+02 
223.125  2.11000000e+02 
222.766  1.91000000e+02 
222.406  2.05000000e+02 
222.047  1.76000000e+02 
221.687  1.72000000e+02 
221.328  1.90000000e+02 
220.969  1.91000000e+02 
220.609  1.99000000e+02 
220.250  1.67000000e+02 
219.891  1.60000000e+02 
219.531  1.87000000e+02 
219.172  1.61000000e+02 
218.812  1.73000000e+02 
218.453  1.70000000e+02 
218.094  1.92000000e+02 
217.734  1.91000000e+02 
217.375  1.65000000e+02 
217.016  1.83000000e+02 
216.656  1.83000000e+02 
216.297  1.61000000e+02 
215.937  1.86000000e+02 
215.578  1.43000000e+02 
215.219  1.54000000e+02 
214.859  1.69000000e+02 
214.500  1.73000000e+02 
214.141  1.79000000e+02 
213.781  1.86000000e+02 
213.422  1.68000000e+02 
213.062  2.06000000e+02 
212.703  1.66000000e+02 
212.344  1.54000000e+02 
211.984  1.71000000e+02 
211.625  1.67000000e+02 
211.266  1.66000000e+02 
210.906  1.81000000e+02 
210.547  1.81000000e+02 
210.187  1.83000000e+02 
209.828  1.56000000e+02 
209.469  1.77000000e+02 
209.109  1.74000000e+02 
208.750  1.66000000e+02 
208.391  1.63000000e+02 
208.031  1.64000000e+02 
207.672  1.75000000e+02 
207.312  1.73000000e+02 
206.953  1.60000000e+02 
206.594  1.65000000e+02 
206.234  1.94000000e+02 
205.875  1.93000000e+02 
205.516  2.06000000e+02 
205.156  1.77000000e+02 
204.797  1.85000000e+02 
204.437  2.10000000e+02 
204.078  1.94000000e+02 
203.719  1.99000000e+02 
203.359  1.90000000e+02 
203.000  1.98000000e+02 
202.641  2.01000000e+02 
202.281  2.23000000e+02 
201.922  1.87000000e+02 
201.562  1.71000000e+02 
201.203  1.68000000e+02 
200.844  1.79000000e+02 
200.484  1.66000000e+02 
200.125  1.64000000e+02 
199.766  1.68000000e+02 
199.406  1.59000000e+02 
199.047  1.85000000e+02 
198.687  1.73000000e+02 
198.328  1.68000000e+02 
197.969  1.60000000e+02 
197.609  1.78000000e+02 
197.250  1.70000000e+02 
196.891  1.76000000e+02 
196.531  1.70000000e+02 
196.172  1.53000000e+02 
195.812  1.95000000e+02 
195.453  1.96000000e+02 
195.094  1.49000000e+02 
194.734  1.92000000e+02 
194.375  1.63000000e+02 
194.016  1.65000000e+02 
193.656  1.58000000e+02 
193.297  1.84000000e+02 
192.937  1.96000000e+02 
192.578  1.56000000e+02 
192.219  1.61000000e+02 
191.859  1.96000000e+02 
191.500  1.70000000e+02 
191.141  1.72000000e+02 
190.781  1.70000000e+02 
190.422  1.58000000e+02 
190.062  1.61000000e+02 
189.703  1.77000000e+02 
189.344  1.80000000e+02 
188.984  1.60000000e+02 
188.625  1.59000000e+02 
188.266  1.62000000e+02 
187.906  1.75000000e+02 
187.547  1.79000000e+02 
187.187  1.76000000e+02 
186.828  1.88000000e+02 
186.469  1.70000000e+02 
186.109  1.51000000e+02 
185.750  1.75000000e+02 
185.391  1.36000000e+02 
185.031  1.54000000e+02 
184.672  1.54000000e+02 
184.312  1.53000000e+02 
183.953  1.65000000e+02 
183.594  1.80000000e+02 
183.234  1.74000000e+02 
182.875  1.52000000e+02 
182.516  1.66000000e+02 
182.156  1.56000000e+02 
181.797  1.49000000e+02 
181.437  1.56000000e+02 
181.078  1.55000000e+02 
180.719  1.73000000e+02 
180.359  1.52000000e+02 
180.000  1.81000000e+02 
179.641  1.64000000e+02 
179.281  1.50000000e+02 
178.922  1.67000000e+02 
178.562  1.51000000e+02 
178.203  1.42000000e+02 
177.844  1.49000000e+02 
177.484  1.54000000e+02 
177.125  1.55000000e+02 
176.766  1.60000000e+02 
176.406  1.57000000e+02 
176.047  1.49000000e+02 
175.687  1.46000000e+02 
175.328  1.64000000e+02 
174.969  1.79000000e+02 
174.609  2.11000000e+02 
174.250  1.98000000e+02 
173.891  2.48000000e+02 
173.531  2.58000000e+02 
173.172  2.46000000e+02 
172.812  2.79000000e+02 
172.453  2.57000000e+02 
172.094  2.15000000e+02 
171.734  2.12000000e+02 
171.375  1.96000000e+02 
171.016  1.65000000e+02 
170.656  1.84000000e+02 
170.297  1.68000000e+02 
169.937  1.69000000e+02 
169.578  1.88000000e+02 
169.219  1.81000000e+02 
168.859  1.61000000e+02 
168.500  1.56000000e+02 
168.141  1.69000000e+02 
167.781  1.42000000e+02 
167.422  1.65000000e+02 
167.062  1.51000000e+02 
166.703  1.34000000e+02 
166.344  1.45000000e+02 
165.984  1.45000000e+02 
165.625  1.67000000e+02 
165.266  1.73000000e+02 
164.906  1.64000000e+02 
164.547  1.57000000e+02 
164.187  1.68000000e+02 
163.828  1.51000000e+02 
163.469  1.39000000e+02 
163.109  1.59000000e+02 
162.750  1.39000000e+02 
162.391  1.58000000e+02 
162.031  1.35000000e+02 
161.672  1.29000000e+02 
161.312  1.54000000e+02 
160.953  1.47000000e+02 
160.594  1.67000000e+02 
160.234  1.58000000e+02 
159.875  1.55000000e+02 
159.516  1.37000000e+02 
159.156  1.76000000e+02 
158.797  1.74000000e+02 
158.437  1.76000000e+02 
158.078  1.77000000e+02 
157.719  1.97000000e+02 
157.359  1.70000000e+02 
157.000  1.81000000e+02 
156.641  1.55000000e+02 
156.281  1.53000000e+02 
155.922  1.61000000e+02 
155.562  1.63000000e+02 
155.203  1.59000000e+02 
154.844  1.51000000e+02 
154.484  1.66000000e+02 
154.125  1.51000000e+02 
153.766  1.44000000e+02 
153.406  1.40000000e+02 
153.047  1.32000000e+02 
152.687  1.39000000e+02 
152.328  1.40000000e+02 
151.969  1.30000000e+02 
151.609  1.37000000e+02 
151.250  1.47000000e+02 
150.891  1.46000000e+02 
150.531  1.58000000e+02 
150.172  1.63000000e+02 
149.812  1.41000000e+02 
149.453  1.75000000e+02 
149.094  1.61000000e+02 
148.734  1.78000000e+02 
148.375  1.61000000e+02 
148.016  1.48000000e+02 
147.656  1.56000000e+02 
147.297  1.38000000e+02 
146.937  1.33000000e+02 
146.578  1.65000000e+02 
146.219  1.35000000e+02 
145.859  1.58000000e+02 
145.500  1.55000000e+02 
145.141  1.56000000e+02 
144.781  1.60000000e+02 
144.422  1.62000000e+02 
144.062  1.73000000e+02 
143.703  1.63000000e+02 
143.344  1.63000000e+02 
142.984  1.75000000e+02 
142.625  1.50000000e+02 
142.266  1.81000000e+02 
141.906  1.34000000e+02 
141.547  1.65000000e+02 
141.187  1.69000000e+02 
140.828  1.33000000e+02 
140.469  1.40000000e+02 
140.109  1.37000000e+02 
139.750  1.35000000e+02 
139.391  1.51000000e+02 
139.031  1.37000000e+02 
138.672  1.53000000e+02 
138.312  1.45000000e+02 
137.953  1.49000000e+02 
137.594  1.46000000e+02 
137.234  1.34000000e+02 
136.875  1.52000000e+02 
136.516  1.33000000e+02 
136.156  1.27000000e+02 
135.797  1.19000000e+02 
135.437  1.41000000e+02 
135.078  1.32000000e+02 
134.719  1.57000000e+02 
134.359  1.38000000e+02 
134.000  1.42000000e+02 
133.641  1.52000000e+02 
133.281  1.37000000e+02 
132.922  1.24000000e+02 
132.562  1.39000000e+02 
132.203  1.46000000e+02 
131.844  1.46000000e+02 
131.484  1.42000000e+02 
131.125  1.36000000e+02 
130.766  1.47000000e+02 
130.406  1.37000000e+02 
130.047  1.45000000e+02 
129.687  1.37000000e+02 
129.328  1.36000000e+02 
128.969  1.46000000e+02 
128.609  1.40000000e+02 
128.250  1.51000000e+02 
127.891  1.51000000e+02 
127.531  1.34000000e+02 
127.172  1.27000000e+02 
126.812  1.45000000e+02 
126.453  1.29000000e+02 
126.094  1.37000000e+02 
125.734  1.23000000e+02 
125.375  1.51000000e+02 
125.016  1.41000000e+02 
124.656  1.58000000e+02 
124.297  1.30000000e+02 
123.937  1.61000000e+02 
123.578  1.29000000e+02 
123.219  1.38000000e+02 
122.859  1.41000000e+02 
122.500  1.29000000e+02 
122.141  1.30000000e+02 
121.781  1.42000000e+02 
121.422  1.44000000e+02 
121.062  1.49000000e+02 
120.703  1.23000000e+02 
120.344  1.30000000e+02 
119.984  1.23000000e+02 
119.625  1.26000000e+02 
119.266  1.12000000e+02 
118.906  1.50000000e+02 
118.547  1.28000000e+02 
118.187  1.60000000e+02 
117.828  1.41000000e+02 
117.469  1.29000000e+02 
117.109  1.38000000e+02 
116.750  1.38000000e+02 
116.391  1.73000000e+02 
116.031  1.15000000e+02 
115.672  1.50000000e+02 
115.312  1.38000000e+02 
114.953  1.30000000e+02 
114.594  1.38000000e+02 
114.234  1.39000000e+02 
113.875  1.25000000e+02 
113.516  1.38000000e+02 
113.156  1.35000000e+02 
112.797  1.38000000e+02 
112.437  1.27000000e+02 
112.078  1.34000000e+02 
111.719  1.43000000e+02 
111.359  1.37000000e+02 
111.000  1.36000000e+02 
110.641  1.25000000e+02 
110.281  1.34000000e+02 
109.922  1.25000000e+02 
109.562  1.27000000e+02 
109.203  1.54000000e+02 
108.844  1.48000000e+02 
108.484  1.33000000e+02 
108.125  1.44000000e+02 
107.766  1.50000000e+02 
107.406  1.50000000e+02 
107.047  1.48000000e+02 
106.687  1.74000000e+02 
106.328  1.82000000e+02 
105.969  1.69000000e+02 
105.609  1.55000000e+02 
105.250  1.25000000e+02 
104.891  1.34000000e+02 
104.531  1.23000000e+02 
104.172  1.24000000e+02 
103.812  1.14000000e+02 
103.453  1.19000000e+02 
103.094  1.23000000e+02 
102.734  1.47000000e+02 
102.375  1.16000000e+02 
102.016  1.20000000e+02 
101.656  1.19000000e+02 
101.297  1.43000000e+02 
100.937  1.22000000e+02 
100.578  1.24000000e+02 
100.219  1.24000000e+02 
99.859   1.45000000e+02 
99.500   1.10000000e+02 
99.141   1.22000000e+02 
98.781   1.55000000e+02 
98.422   1.11000000e+02 
98.062   1.48000000e+02 
97.703   1.41000000e+02 
97.344   1.20000000e+02 
96.984   1.48000000e+02 
96.625   1.32000000e+02 
96.266   1.22000000e+02 
95.906   1.40000000e+02 
95.547   1.43000000e+02 
95.187   1.27000000e+02 
94.828   1.17000000e+02 
94.469   1.56000000e+02 
94.109   1.43000000e+02 
93.750   1.52000000e+02 
93.391   1.50000000e+02 
93.031   1.53000000e+02 
92.672   1.72000000e+02 
92.312   1.51000000e+02 
91.953   1.20000000e+02 
91.594   1.38000000e+02 
91.234   1.32000000e+02 
90.875   1.23000000e+02 
90.516   1.20000000e+02 
90.156   1.24000000e+02 
89.797   1.21000000e+02 
89.437   1.12000000e+02 
89.078   1.22000000e+02 
88.719   1.11000000e+02 
88.359   1.41000000e+02 
88.000   1.47000000e+02 
87.641   1.20000000e+02 
87.281   9.90000000e+01 
86.922   1.42000000e+02 
86.562   1.27000000e+02 
86.203   9.80000000e+01 
85.844   1.18000000e+02 
85.484   1.02000000e+02 
85.125   1.23000000e+02 
84.766   1.37000000e+02 
84.406   1.22000000e+02 
84.047   1.27000000e+02 
83.687   1.13000000e+02 
83.328   1.04000000e+02 
82.969   1.21000000e+02 
82.609   1.03000000e+02 
82.250   1.10000000e+02 
81.891   9.20000000e+01 
81.531   1.01000000e+02 
81.172   1.21000000e+02 
80.812   1.19000000e+02 
80.453   1.03000000e+02 
80.094   1.12000000e+02 
79.734   8.30000000e+01 
79.375   1.20000000e+02 
79.016   1.07000000e+02 
78.656   1.19000000e+02 
78.297   1.15000000e+02 
77.937   1.20000000e+02 
77.578   1.02000000e+02 
77.219   9.50000000e+01 
76.859   1.07000000e+02 
76.500   8.90000000e+01 
76.141   1.00000000e+02 
75.781   1.14000000e+02 
75.422   9.70000000e+01 
75.062   9.10000000e+01 
74.703   1.12000000e+02 
74.344   1.06000000e+02 
73.984   9.50000000e+01 
73.625   1.13000000e+02 
73.266   1.00000000e+02 
72.906   9.60000000e+01 
72.547   9.50000000e+01 
72.187   8.90000000e+01 
71.828   9.00000000e+01 
71.469   1.00000000e+02 
71.109   8.70000000e+01 
70.750   9.40000000e+01 
70.391   9.40000000e+01 
70.031   1.19000000e+02 
69.672   8.10000000e+01 
69.312   1.02000000e+02 
68.953   1.26000000e+02 
68.594   1.50000000e+02 
68.234   1.99000000e+02 
67.875   1.86000000e+02 
67.516   2.74000000e+02 
67.156   2.66000000e+02 
66.797   1.95000000e+02 
66.437   1.71000000e+02 
66.078   1.33000000e+02 
65.719   8.00000000e+01 
65.359   8.70000000e+01 
65.000   1.09000000e+02 
64.641   9.90000000e+01 
64.281   7.90000000e+01 
63.922   6.80000000e+01 
63.562   8.40000000e+01 
63.203   8.00000000e+01 
62.844   7.50000000e+01 
62.484   8.00000000e+01 
62.125   1.04000000e+02 
61.766   8.40000000e+01 
61.406   7.80000000e+01 
61.047   1.02000000e+02 
60.687   8.60000000e+01 
60.328   9.20000000e+01 
59.969   1.08000000e+02 
59.609   1.06000000e+02 
59.250   1.06000000e+02 
58.891   1.00000000e+02 
58.531   9.00000000e+01 
58.172   9.50000000e+01 
57.812   8.00000000e+01 
57.453   7.60000000e+01 
57.094   6.80000000e+01 
56.734   9.60000000e+01 
56.375   8.60000000e+01 
56.016   6.90000000e+01 
55.656   8.20000000e+01 
55.297   8.80000000e+01 
54.937   9.00000000e+01 
54.578   1.16000000e+02 
54.219   1.17000000e+02 
53.859   1.05000000e+02 
53.500   1.20000000e+02 
53.141   1.14000000e+02 
52.781   1.00000000e+02 
52.422   8.90000000e+01 
52.062   8.60000000e+01 
51.703   7.30000000e+01 
51.344   6.50000000e+01 
50.984   6.40000000e+01 
50.625   6.40000000e+01 
50.266   6.10000000e+01 
49.906   6.10000000e+01 
49.547   5.50000000e+01 
49.187   5.30000000e+01 
48.828   7.90000000e+01 
48.469   6.80000000e+01 
48.109   7.60000000e+01 
47.750   6.50000000e+01 
47.391   7.40000000e+01 
47.031   6.10000000e+01 
46.672   6.70000000e+01 
46.312   4.90000000e+01 
45.953   6.20000000e+01 
45.594   5.00000000e+01 
45.234   5.00000000e+01 
44.875   6.00000000e+01 
44.516   5.50000000e+01 
44.156   4.50000000e+01 
43.797   5.40000000e+01 
43.437   5.30000000e+01 
43.078   4.30000000e+01 
42.719   6.60000000e+01 
42.359   4.50000000e+01 
42.000   4.40000000e+01 
41.641   5.90000000e+01 
41.281   6.20000000e+01 
40.922   5.00000000e+01 
40.562   4.10000000e+01 
40.203   5.10000000e+01 
39.844   3.80000000e+01 
39.484   4.60000000e+01 
39.125   4.50000000e+01 
38.766   5.00000000e+01 
38.406   5.30000000e+01 
38.047   3.90000000e+01 
37.687   5.10000000e+01 
37.328   5.20000000e+01 
36.969   4.80000000e+01 
36.609   5.10000000e+01 
36.250   7.80000000e+01 
35.891   7.00000000e+01 
35.531   8.50000000e+01 
35.172   1.19000000e+02 
34.812   1.24000000e+02 
34.453   1.55000000e+02 
34.094   1.54000000e+02 
33.734   1.04000000e+02 
33.375   7.00000000e+01 
33.016   5.50000000e+01 
32.656   7.00000000e+01 
32.297   7.90000000e+01 
31.937   6.80000000e+01 
31.578   5.60000000e+01 
31.219   6.50000000e+01 
30.859   6.50000000e+01 
30.500   7.50000000e+01 
30.141   1.03000000e+02 
29.781   9.00000000e+01 
29.422   1.06000000e+02 
29.062   8.80000000e+01 
28.703   1.14000000e+02 
28.344   8.70000000e+01 
27.984   9.10000000e+01 
27.625   7.20000000e+01 
27.266   7.10000000e+01 
26.906   5.90000000e+01 
26.547   6.10000000e+01 
26.187   3.70000000e+01 
25.828   5.40000000e+01 
25.469   6.40000000e+01 
25.109   3.30000000e+01 
24.750   4.50000000e+01 
24.391   5.60000000e+01 
24.031   2.70000000e+01 
23.672   2.90000000e+01 
23.312   3.20000000e+01 
22.953   3.50000000e+01 
22.594   4.10000000e+01 
22.234   3.10000000e+01 
21.875   3.60000000e+01 
21.516   2.50000000e+01 
21.156   2.60000000e+01 
20.797   2.60000000e+01 
20.437   3.00000000e+01 
20.078   3.60000000e+01 
19.719   3.50000000e+01 
19.359   2.80000000e+01 
19.000   3.60000000e+01 
18.641   3.50000000e+01 
18.281   3.10000000e+01 
17.922   3.40000000e+01 
17.562   4.20000000e+01 
17.203   3.40000000e+01 
16.844   3.30000000e+01 
16.484   3.60000000e+01 
16.125   3.20000000e+01 
15.766   3.70000000e+01 
15.406   5.00000000e+01 
15.047   4.50000000e+01 
14.687   4.70000000e+01 
14.328   3.90000000e+01 
13.969   4.00000000e+01 
13.609   3.20000000e+01 
13.250   2.80000000e+01 
12.891   3.40000000e+01 
12.531   2.30000000e+01 
12.172   2.40000000e+01 
11.812   2.40000000e+01 
11.453   2.60000000e+01 
11.094   2.90000000e+01 
10.734   2.60000000e+01 
10.375   4.20000000e+01 
10.016   3.00000000e+01 
9.656    3.30000000e+01 
9.297    2.50000000e+01 
8.937    3.20000000e+01 
8.578    4.00000000e+01 
8.219    2.60000000e+01 
7.859    2.60000000e+01 
7.500    1.90000000e+01 
7.141    2.00000000e+01 
6.781    1.20000000e+01 
6.422    1.60000000e+01 
6.062    8.00000000e+00 
5.703    8.00000000e+00 
5.344    9.00000000e+00 
4.984    4.00000000e+00 
4.625    4.00000000e+00 
4.266    4.00000000e+00 
3.906    7.00000000e+00 
3.547    7.00000000e+00 
3.187    6.00000000e+00 
2.828    6.00000000e+00 
2.469    5.00000000e+00 
2.109    9.00000000e+00 
1.750    3.00000000e+00 
1.391    3.00000000e+00 
1.031    4.00000000e+00 
0.672    2.00000000e+00 
0.312    2.00000000e+00 
-0.047   5.00000000e+00 
-0.406   2.00000000e+00 
-0.766   0.00000000e+00 
-1.125   4.00000000e+00 
-1.484   2.00000000e+00 
-1.844   4.00000000e+00 
-2.203   4.00000000e+00 
-2.563   3.00000000e+00 
-2.922   5.00000000e+00 
-3.281   2.00000000e+00 
-3.641   4.00000000e+00 
-4.000   6.00000000e+00 
-4.359   3.00000000e+00 
-4.719   4.00000000e+00 
-5.078   0.00000000e+00 
-5.438   1.00000000e+00 
-5.797   3.00000000e+00 
-6.156   0.00000000e+00 
-6.516   4.00000000e+00 
-6.875   1.00000000e+00 
-7.234   3.00000000e+00 
-7.594   3.00000000e+00 
-7.953   5.00000000e+00 
-8.313   3.00000000e+00 
-8.672   1.00000000e+00 
-9.031   1.00000000e+00 
-9.391   2.00000000e+00 
-9.750   1.00000000e+00 

