EXPERIMENT FILE
Version = 2

[ Experiment Parameters ]
Experiment Description= <none> 
Number_of_Regions_in_Experiment= 1 

Original_File_name= c:\alexesca\data\detector\survay2.xps 
Instrument= HP ESCA West
Date= 01-22-2006
Time=  15:09:50

[ Layer Parameters ]
Layer_Type= XPS

[ Region 1 Parameters ]
Region_Description = Nsurvey                            
BEcenter(eV) = 600.000000
BEwidth(eV) = 1200.000000
BEstep(eV) = 1.006250
Dwell_Time(sec) = 0.250000
N_o_scans = 2  
N_o_Channels = 1193  
Scan_mode = 0  (DITHERED)

[ L= 1 R= 1 ]
BEcenter= 600.000 
BEwidth= -1199.450
Excitation= 1486.600
Time_p_channel= 4.571   
Size= 1193
1199.725 3.11000000e+02 
1198.719 3.14000000e+02 
1197.713 3.29000000e+02 
1196.706 3.19000000e+02 
1195.700 3.05000000e+02 
1194.694 3.34000000e+02 
1193.688 3.06000000e+02 
1192.681 3.24000000e+02 
1191.675 2.96000000e+02 
1190.669 2.99000000e+02 
1189.663 3.18000000e+02 
1188.656 3.05000000e+02 
1187.650 3.02000000e+02 
1186.644 3.00000000e+02 
1185.638 3.35000000e+02 
1184.631 3.15000000e+02 
1183.625 3.07000000e+02 
1182.619 3.40000000e+02 
1181.613 2.55000000e+02 
1180.606 3.34000000e+02 
1179.600 3.05000000e+02 
1178.594 2.89000000e+02 
1177.588 3.30000000e+02 
1176.581 3.22000000e+02 
1175.575 2.93000000e+02 
1174.569 2.89000000e+02 
1173.563 3.13000000e+02 
1172.556 3.35000000e+02 
1171.550 2.95000000e+02 
1170.544 3.10000000e+02 
1169.538 3.17000000e+02 
1168.531 2.98000000e+02 
1167.525 3.23000000e+02 
1166.519 3.37000000e+02 
1165.513 3.10000000e+02 
1164.506 2.91000000e+02 
1163.500 2.87000000e+02 
1162.494 3.06000000e+02 
1161.488 3.03000000e+02 
1160.481 3.23000000e+02 
1159.475 3.12000000e+02 
1158.469 3.20000000e+02 
1157.463 3.00000000e+02 
1156.456 3.22000000e+02 
1155.450 3.06000000e+02 
1154.444 3.35000000e+02 
1153.438 2.98000000e+02 
1152.431 3.27000000e+02 
1151.425 3.08000000e+02 
1150.419 3.48000000e+02 
1149.413 3.17000000e+02 
1148.406 3.00000000e+02 
1147.400 3.49000000e+02 
1146.394 3.23000000e+02 
1145.388 3.48000000e+02 
1144.381 3.29000000e+02 
1143.375 3.18000000e+02 
1142.369 2.96000000e+02 
1141.363 3.09000000e+02 
1140.356 2.90000000e+02 
1139.350 3.35000000e+02 
1138.344 3.36000000e+02 
1137.338 3.26000000e+02 
1136.331 3.26000000e+02 
1135.325 3.29000000e+02 
1134.319 3.24000000e+02 
1133.313 3.08000000e+02 
1132.306 2.93000000e+02 
1131.300 3.41000000e+02 
1130.294 3.36000000e+02 
1129.288 3.03000000e+02 
1128.281 3.27000000e+02 
1127.275 3.49000000e+02 
1126.269 2.99000000e+02 
1125.263 3.13000000e+02 
1124.256 3.39000000e+02 
1123.250 3.26000000e+02 
1122.244 3.16000000e+02 
1121.238 3.30000000e+02 
1120.231 3.33000000e+02 
1119.225 3.11000000e+02 
1118.219 3.03000000e+02 
1117.213 3.19000000e+02 
1116.206 3.37000000e+02 
1115.200 3.33000000e+02 
1114.194 2.85000000e+02 
1113.188 2.98000000e+02 
1112.181 3.30000000e+02 
1111.175 3.15000000e+02 
1110.169 3.05000000e+02 
1109.163 2.91000000e+02 
1108.156 3.19000000e+02 
1107.150 3.20000000e+02 
1106.144 3.16000000e+02 
1105.138 2.78000000e+02 
1104.131 3.09000000e+02 
1103.125 3.16000000e+02 
1102.119 3.35000000e+02 
1101.113 2.94000000e+02 
1100.106 3.29000000e+02 
1099.100 3.31000000e+02 
1098.094 3.43000000e+02 
1097.088 3.21000000e+02 
1096.081 3.18000000e+02 
1095.075 3.14000000e+02 
1094.069 3.08000000e+02 
1093.063 3.08000000e+02 
1092.056 3.27000000e+02 
1091.050 3.41000000e+02 
1090.044 3.14000000e+02 
1089.038 3.44000000e+02 
1088.031 2.86000000e+02 
1087.025 3.06000000e+02 
1086.019 3.25000000e+02 
1085.013 3.27000000e+02 
1084.006 3.17000000e+02 
1083.000 2.95000000e+02 
1081.994 3.04000000e+02 
1080.988 3.36000000e+02 
1079.981 3.22000000e+02 
1078.975 3.28000000e+02 
1077.969 3.43000000e+02 
1076.963 3.34000000e+02 
1075.956 3.16000000e+02 
1074.950 3.48000000e+02 
1073.944 3.17000000e+02 
1072.938 3.36000000e+02 
1071.931 3.14000000e+02 
1070.925 3.38000000e+02 
1069.919 3.25000000e+02 
1068.913 3.07000000e+02 
1067.906 3.34000000e+02 
1066.900 3.19000000e+02 
1065.894 3.13000000e+02 
1064.888 3.22000000e+02 
1063.881 3.07000000e+02 
1062.875 3.24000000e+02 
1061.869 3.00000000e+02 
1060.863 3.01000000e+02 
1059.856 3.18000000e+02 
1058.850 3.17000000e+02 
1057.844 2.79000000e+02 
1056.838 3.18000000e+02 
1055.831 3.07000000e+02 
1054.825 3.14000000e+02 
1053.819 3.28000000e+02 
1052.813 3.37000000e+02 
1051.806 2.94000000e+02 
1050.800 3.23000000e+02 
1049.794 3.20000000e+02 
1048.788 3.18000000e+02 
1047.781 3.24000000e+02 
1046.775 3.13000000e+02 
1045.769 3.29000000e+02 
1044.763 3.20000000e+02 
1043.756 3.26000000e+02 
1042.750 3.30000000e+02 
1041.744 3.34000000e+02 
1040.738 3.57000000e+02 
1039.731 3.20000000e+02 
1038.725 3.23000000e+02 
1037.719 3.36000000e+02 
1036.713 3.20000000e+02 
1035.706 3.12000000e+02 
1034.700 2.86000000e+02 
1033.694 3.41000000e+02 
1032.688 3.24000000e+02 
1031.681 3.47000000e+02 
1030.675 3.25000000e+02 
1029.669 3.07000000e+02 
1028.663 3.34000000e+02 
1027.656 3.46000000e+02 
1026.650 3.09000000e+02 
1025.644 3.23000000e+02 
1024.638 3.11000000e+02 
1023.631 3.03000000e+02 
1022.625 3.23000000e+02 
1021.619 3.18000000e+02 
1020.613 3.01000000e+02 
1019.606 3.11000000e+02 
1018.600 2.87000000e+02 
1017.594 3.22000000e+02 
1016.588 3.45000000e+02 
1015.581 3.04000000e+02 
1014.575 3.18000000e+02 
1013.569 3.64000000e+02 
1012.563 3.08000000e+02 
1011.556 3.50000000e+02 
1010.550 3.60000000e+02 
1009.544 3.04000000e+02 
1008.538 2.98000000e+02 
1007.531 3.23000000e+02 
1006.525 3.10000000e+02 
1005.519 3.02000000e+02 
1004.513 2.92000000e+02 
1003.506 2.72000000e+02 
1002.500 3.09000000e+02 
1001.494 2.93000000e+02 
1000.488 3.10000000e+02 
999.481  3.25000000e+02 
998.475  3.18000000e+02 
997.469  3.09000000e+02 
996.463  3.40000000e+02 
995.456  3.01000000e+02 
994.450  3.21000000e+02 
993.444  3.20000000e+02 
992.438  3.45000000e+02 
991.431  3.14000000e+02 
990.425  3.20000000e+02 
989.419  3.21000000e+02 
988.413  3.27000000e+02 
987.406  3.36000000e+02 
986.400  3.18000000e+02 
985.394  3.01000000e+02 
984.388  3.19000000e+02 
983.381  3.08000000e+02 
982.375  3.39000000e+02 
981.369  3.36000000e+02 
980.363  3.05000000e+02 
979.356  3.11000000e+02 
978.350  3.49000000e+02 
977.344  3.18000000e+02 
976.338  3.15000000e+02 
975.331  3.29000000e+02 
974.325  3.20000000e+02 
973.319  3.06000000e+02 
972.313  3.09000000e+02 
971.306  3.30000000e+02 
970.300  3.10000000e+02 
969.294  3.06000000e+02 
968.288  2.91000000e+02 
967.281  3.09000000e+02 
966.275  2.89000000e+02 
965.269  2.95000000e+02 
964.263  3.02000000e+02 
963.256  3.60000000e+02 
962.250  3.01000000e+02 
961.244  3.29000000e+02 
960.238  3.53000000e+02 
959.231  2.91000000e+02 
958.225  2.92000000e+02 
957.219  3.11000000e+02 
956.213  3.10000000e+02 
955.206  3.11000000e+02 
954.200  3.27000000e+02 
953.194  3.07000000e+02 
952.188  3.25000000e+02 
951.181  3.35000000e+02 
950.175  3.27000000e+02 
949.169  2.99000000e+02 
948.163  3.42000000e+02 
947.156  3.48000000e+02 
946.150  2.73000000e+02 
945.144  3.29000000e+02 
944.138  3.29000000e+02 
943.131  3.35000000e+02 
942.125  3.22000000e+02 
941.119  3.05000000e+02 
940.113  3.17000000e+02 
939.106  3.11000000e+02 
938.100  3.31000000e+02 
937.094  3.45000000e+02 
936.088  3.21000000e+02 
935.081  3.50000000e+02 
934.075  3.09000000e+02 
933.069  3.32000000e+02 
932.063  3.10000000e+02 
931.056  2.80000000e+02 
930.050  3.63000000e+02 
929.044  3.25000000e+02 
928.038  3.09000000e+02 
927.031  3.13000000e+02 
926.025  2.93000000e+02 
925.019  3.22000000e+02 
924.013  3.26000000e+02 
923.006  3.38000000e+02 
922.000  2.81000000e+02 
920.994  3.41000000e+02 
919.988  3.16000000e+02 
918.981  3.29000000e+02 
917.975  3.62000000e+02 
916.969  3.15000000e+02 
915.963  2.97000000e+02 
914.956  3.37000000e+02 
913.950  3.15000000e+02 
912.944  3.41000000e+02 
911.938  3.36000000e+02 
910.931  2.87000000e+02 
909.925  3.18000000e+02 
908.919  3.43000000e+02 
907.913  3.55000000e+02 
906.906  3.14000000e+02 
905.900  3.14000000e+02 
904.894  3.42000000e+02 
903.888  3.09000000e+02 
902.881  3.10000000e+02 
901.875  3.14000000e+02 
900.869  3.24000000e+02 
899.863  3.22000000e+02 
898.856  3.57000000e+02 
897.850  3.02000000e+02 
896.844  3.51000000e+02 
895.838  3.29000000e+02 
894.831  3.21000000e+02 
893.825  2.83000000e+02 
892.819  3.31000000e+02 
891.813  3.28000000e+02 
890.806  3.28000000e+02 
889.800  3.29000000e+02 
888.794  3.04000000e+02 
887.788  3.40000000e+02 
886.781  2.96000000e+02 
885.775  3.20000000e+02 
884.769  3.48000000e+02 
883.763  3.04000000e+02 
882.756  3.09000000e+02 
881.750  3.30000000e+02 
880.744  3.43000000e+02 
879.738  3.34000000e+02 
878.731  2.65000000e+02 
877.725  2.88000000e+02 
876.719  3.54000000e+02 
875.713  3.30000000e+02 
874.706  3.32000000e+02 
873.700  3.44000000e+02 
872.694  3.31000000e+02 
871.688  3.53000000e+02 
870.681  3.14000000e+02 
869.675  3.25000000e+02 
868.669  3.32000000e+02 
867.663  3.01000000e+02 
866.656  3.22000000e+02 
865.650  3.16000000e+02 
864.644  3.40000000e+02 
863.638  2.94000000e+02 
862.631  3.11000000e+02 
861.625  3.31000000e+02 
860.619  3.22000000e+02 
859.613  3.09000000e+02 
858.606  2.68000000e+02 
857.600  2.69000000e+02 
856.594  3.26000000e+02 
855.588  3.50000000e+02 
854.581  3.52000000e+02 
853.575  3.26000000e+02 
852.569  3.08000000e+02 
851.563  3.12000000e+02 
850.556  3.24000000e+02 
849.550  2.75000000e+02 
848.544  2.96000000e+02 
847.538  3.67000000e+02 
846.531  3.25000000e+02 
845.525  3.30000000e+02 
844.519  3.27000000e+02 
843.513  3.35000000e+02 
842.506  3.22000000e+02 
841.500  3.21000000e+02 
840.494  3.08000000e+02 
839.488  3.59000000e+02 
838.481  3.08000000e+02 
837.475  3.18000000e+02 
836.469  2.93000000e+02 
835.463  3.35000000e+02 
834.456  3.41000000e+02 
833.450  3.22000000e+02 
832.444  3.46000000e+02 
831.438  3.34000000e+02 
830.431  3.26000000e+02 
829.425  3.24000000e+02 
828.419  2.87000000e+02 
827.413  3.58000000e+02 
826.406  3.33000000e+02 
825.400  3.41000000e+02 
824.394  3.22000000e+02 
823.388  3.22000000e+02 
822.381  3.01000000e+02 
821.375  3.20000000e+02 
820.369  3.15000000e+02 
819.363  3.16000000e+02 
818.356  3.07000000e+02 
817.350  3.00000000e+02 
816.344  3.45000000e+02 
815.338  3.24000000e+02 
814.331  3.08000000e+02 
813.325  3.41000000e+02 
812.319  3.02000000e+02 
811.313  3.08000000e+02 
810.306  3.44000000e+02 
809.300  2.86000000e+02 
808.294  3.22000000e+02 
807.288  3.34000000e+02 
806.281  3.21000000e+02 
805.275  3.57000000e+02 
804.269  3.46000000e+02 
803.263  3.22000000e+02 
802.256  3.05000000e+02 
801.250  3.18000000e+02 
800.244  3.36000000e+02 
799.238  3.27000000e+02 
798.231  3.20000000e+02 
797.225  3.49000000e+02 
796.219  3.31000000e+02 
795.213  3.06000000e+02 
794.206  3.19000000e+02 
793.200  3.10000000e+02 
792.194  3.50000000e+02 
791.188  3.38000000e+02 
790.181  3.43000000e+02 
789.175  3.27000000e+02 
788.169  3.25000000e+02 
787.163  3.48000000e+02 
786.156  3.34000000e+02 
785.150  3.04000000e+02 
784.144  3.28000000e+02 
783.138  3.06000000e+02 
782.131  3.21000000e+02 
781.125  3.01000000e+02 
780.119  3.46000000e+02 
779.113  3.45000000e+02 
778.106  3.25000000e+02 
777.100  2.87000000e+02 
776.094  2.98000000e+02 
775.088  3.07000000e+02 
774.081  2.89000000e+02 
773.075  2.99000000e+02 
772.069  3.07000000e+02 
771.063  3.14000000e+02 
770.056  3.11000000e+02 
769.050  3.04000000e+02 
768.044  3.29000000e+02 
767.038  3.35000000e+02 
766.031  3.14000000e+02 
765.025  3.18000000e+02 
764.019  3.39000000e+02 
763.013  3.13000000e+02 
762.006  3.32000000e+02 
761.000  3.14000000e+02 
759.994  3.32000000e+02 
758.988  3.27000000e+02 
757.981  3.24000000e+02 
756.975  3.00000000e+02 
755.969  3.16000000e+02 
754.963  3.09000000e+02 
753.956  3.41000000e+02 
752.950  3.20000000e+02 
751.944  3.18000000e+02 
750.938  2.94000000e+02 
749.931  3.08000000e+02 
748.925  3.42000000e+02 
747.919  3.15000000e+02 
746.913  3.27000000e+02 
745.906  3.26000000e+02 
744.900  3.34000000e+02 
743.894  2.99000000e+02 
742.888  3.52000000e+02 
741.881  3.12000000e+02 
740.875  3.39000000e+02 
739.869  3.29000000e+02 
738.863  3.41000000e+02 
737.856  3.15000000e+02 
736.850  3.61000000e+02 
735.844  3.37000000e+02 
734.838  2.96000000e+02 
733.831  3.05000000e+02 
732.825  3.18000000e+02 
731.819  2.98000000e+02 
730.813  3.53000000e+02 
729.806  3.09000000e+02 
728.800  3.11000000e+02 
727.794  3.09000000e+02 
726.788  3.15000000e+02 
725.781  3.10000000e+02 
724.775  3.01000000e+02 
723.769  3.41000000e+02 
722.763  3.01000000e+02 
721.756  3.28000000e+02 
720.750  3.07000000e+02 
719.744  2.93000000e+02 
718.738  3.19000000e+02 
717.731  2.95000000e+02 
716.725  3.49000000e+02 
715.719  3.28000000e+02 
714.713  3.25000000e+02 
713.706  3.28000000e+02 
712.700  3.00000000e+02 
711.694  2.93000000e+02 
710.688  3.27000000e+02 
709.681  3.33000000e+02 
708.675  3.28000000e+02 
707.669  3.22000000e+02 
706.663  3.17000000e+02 
705.656  2.95000000e+02 
704.650  3.15000000e+02 
703.644  3.30000000e+02 
702.638  3.10000000e+02 
701.631  3.11000000e+02 
700.625  3.20000000e+02 
699.619  2.99000000e+02 
698.613  3.04000000e+02 
697.606  2.94000000e+02 
696.600  3.60000000e+02 
695.594  3.17000000e+02 
694.588  3.11000000e+02 
693.581  3.37000000e+02 
692.575  3.24000000e+02 
691.569  3.30000000e+02 
690.563  3.04000000e+02 
689.556  3.06000000e+02 
688.550  3.81000000e+02 
687.544  3.11000000e+02 
686.538  2.83000000e+02 
685.531  3.31000000e+02 
684.525  3.01000000e+02 
683.519  3.14000000e+02 
682.513  3.08000000e+02 
681.506  3.36000000e+02 
680.500  3.44000000e+02 
679.494  3.10000000e+02 
678.488  3.10000000e+02 
677.481  2.98000000e+02 
676.475  3.24000000e+02 
675.469  3.40000000e+02 
674.463  3.23000000e+02 
673.456  3.10000000e+02 
672.450  3.33000000e+02 
671.444  3.06000000e+02 
670.438  3.13000000e+02 
669.431  3.25000000e+02 
668.425  3.49000000e+02 
667.419  3.11000000e+02 
666.413  3.33000000e+02 
665.406  2.88000000e+02 
664.400  3.16000000e+02 
663.394  3.32000000e+02 
662.388  3.14000000e+02 
661.381  3.15000000e+02 
660.375  3.18000000e+02 
659.369  3.32000000e+02 
658.363  2.94000000e+02 
657.356  3.28000000e+02 
656.350  3.21000000e+02 
655.344  3.15000000e+02 
654.338  3.15000000e+02 
653.331  3.35000000e+02 
652.325  3.10000000e+02 
651.319  3.28000000e+02 
650.313  3.13000000e+02 
649.306  3.45000000e+02 
648.300  3.42000000e+02 
647.294  3.20000000e+02 
646.288  3.25000000e+02 
645.281  3.02000000e+02 
644.275  3.10000000e+02 
643.269  3.41000000e+02 
642.263  3.43000000e+02 
641.256  3.60000000e+02 
640.250  3.44000000e+02 
639.244  3.08000000e+02 
638.238  3.31000000e+02 
637.231  3.13000000e+02 
636.225  3.40000000e+02 
635.219  3.22000000e+02 
634.213  3.25000000e+02 
633.206  3.50000000e+02 
632.200  3.43000000e+02 
631.194  3.64000000e+02 
630.188  3.04000000e+02 
629.181  3.29000000e+02 
628.175  3.26000000e+02 
627.169  3.51000000e+02 
626.163  3.49000000e+02 
625.156  3.24000000e+02 
624.150  3.19000000e+02 
623.144  3.15000000e+02 
622.138  3.27000000e+02 
621.131  3.15000000e+02 
620.125  3.34000000e+02 
619.119  3.24000000e+02 
618.113  2.93000000e+02 
617.106  3.06000000e+02 
616.100  3.23000000e+02 
615.094  2.94000000e+02 
614.088  3.29000000e+02 
613.081  3.55000000e+02 
612.075  3.48000000e+02 
611.069  3.22000000e+02 
610.062  2.87000000e+02 
609.056  3.28000000e+02 
608.050  3.62000000e+02 
607.044  3.42000000e+02 
606.038  3.09000000e+02 
605.031  3.19000000e+02 
604.025  3.30000000e+02 
603.019  3.29000000e+02 
602.013  3.27000000e+02 
601.006  3.03000000e+02 
600.000  3.32000000e+02 
598.994  3.45000000e+02 
597.988  3.60000000e+02 
596.981  3.44000000e+02 
595.975  2.93000000e+02 
594.969  3.70000000e+02 
593.963  3.38000000e+02 
592.956  3.42000000e+02 
591.950  3.21000000e+02 
590.944  3.59000000e+02 
589.938  3.17000000e+02 
588.931  3.37000000e+02 
587.925  3.45000000e+02 
586.919  3.51000000e+02 
585.913  3.48000000e+02 
584.906  2.96000000e+02 
583.900  3.21000000e+02 
582.894  3.02000000e+02 
581.888  3.15000000e+02 
580.881  3.19000000e+02 
579.875  2.84000000e+02 
578.869  3.26000000e+02 
577.863  2.89000000e+02 
576.856  3.39000000e+02 
575.850  3.22000000e+02 
574.844  3.18000000e+02 
573.838  3.42000000e+02 
572.831  3.06000000e+02 
571.825  3.13000000e+02 
570.819  3.03000000e+02 
569.812  3.24000000e+02 
568.806  3.32000000e+02 
567.800  3.10000000e+02 
566.794  3.24000000e+02 
565.788  3.19000000e+02 
564.781  3.23000000e+02 
563.775  3.29000000e+02 
562.769  3.09000000e+02 
561.763  3.32000000e+02 
560.756  3.01000000e+02 
559.750  3.39000000e+02 
558.744  3.21000000e+02 
557.738  2.74000000e+02 
556.731  3.07000000e+02 
555.725  3.08000000e+02 
554.719  3.40000000e+02 
553.713  3.38000000e+02 
552.706  3.16000000e+02 
551.700  3.39000000e+02 
550.694  3.40000000e+02 
549.688  3.49000000e+02 
548.681  3.21000000e+02 
547.675  3.40000000e+02 
546.669  3.48000000e+02 
545.663  3.40000000e+02 
544.656  3.09000000e+02 
543.650  3.26000000e+02 
542.644  3.24000000e+02 
541.638  2.99000000e+02 
540.631  3.40000000e+02 
539.625  3.05000000e+02 
538.619  3.17000000e+02 
537.613  3.42000000e+02 
536.606  2.96000000e+02 
535.600  2.77000000e+02 
534.594  3.29000000e+02 
533.587  3.19000000e+02 
532.581  3.22000000e+02 
531.575  3.34000000e+02 
530.569  3.38000000e+02 
529.562  3.06000000e+02 
528.556  2.95000000e+02 
527.550  3.31000000e+02 
526.544  3.45000000e+02 
525.538  3.35000000e+02 
524.531  3.15000000e+02 
523.525  3.05000000e+02 
522.519  3.20000000e+02 
521.513  3.17000000e+02 
520.506  3.21000000e+02 
519.500  3.59000000e+02 
518.494  3.32000000e+02 
517.488  3.05000000e+02 
516.481  3.56000000e+02 
515.475  3.41000000e+02 
514.469  3.23000000e+02 
513.462  3.07000000e+02 
512.456  3.30000000e+02 
511.450  3.21000000e+02 
510.444  3.13000000e+02 
509.438  3.43000000e+02 
508.431  3.44000000e+02 
507.425  3.36000000e+02 
506.419  3.44000000e+02 
505.413  3.37000000e+02 
504.406  3.36000000e+02 
503.400  3.78000000e+02 
502.394  3.22000000e+02 
501.388  3.32000000e+02 
500.381  3.35000000e+02 
499.375  3.35000000e+02 
498.369  3.24000000e+02 
497.363  3.42000000e+02 
496.356  3.67000000e+02 
495.350  3.12000000e+02 
494.344  3.53000000e+02 
493.338  3.16000000e+02 
492.331  3.35000000e+02 
491.325  3.42000000e+02 
490.319  3.55000000e+02 
489.312  3.30000000e+02 
488.306  3.52000000e+02 
487.300  3.29000000e+02 
486.294  3.51000000e+02 
485.288  3.40000000e+02 
484.281  3.30000000e+02 
483.275  3.60000000e+02 
482.269  3.52000000e+02 
481.262  3.07000000e+02 
480.256  3.08000000e+02 
479.250  3.21000000e+02 
478.244  3.26000000e+02 
477.238  3.51000000e+02 
476.231  3.51000000e+02 
475.225  3.67000000e+02 
474.219  3.37000000e+02 
473.213  3.50000000e+02 
472.206  3.08000000e+02 
471.200  3.00000000e+02 
470.194  3.62000000e+02 
469.188  3.37000000e+02 
468.181  3.11000000e+02 
467.175  3.36000000e+02 
466.169  3.52000000e+02 
465.163  3.39000000e+02 
464.156  3.29000000e+02 
463.150  3.06000000e+02 
462.144  3.16000000e+02 
461.137  3.19000000e+02 
460.131  3.43000000e+02 
459.125  3.54000000e+02 
458.119  3.36000000e+02 
457.113  3.43000000e+02 
456.106  3.41000000e+02 
455.100  3.20000000e+02 
454.094  3.46000000e+02 
453.087  3.01000000e+02 
452.081  3.51000000e+02 
451.075  3.20000000e+02 
450.069  3.07000000e+02 
449.062  3.19000000e+02 
448.056  3.31000000e+02 
447.050  3.73000000e+02 
446.044  3.29000000e+02 
445.038  3.23000000e+02 
444.031  3.62000000e+02 
443.025  3.31000000e+02 
442.019  3.31000000e+02 
441.012  3.45000000e+02 
440.006  3.51000000e+02 
439.000  3.03000000e+02 
437.994  3.29000000e+02 
436.988  3.42000000e+02 
435.981  3.28000000e+02 
434.975  3.20000000e+02 
433.969  3.58000000e+02 
432.962  3.51000000e+02 
431.956  3.29000000e+02 
430.950  3.47000000e+02 
429.944  3.40000000e+02 
428.938  3.70000000e+02 
427.931  3.23000000e+02 
426.925  3.51000000e+02 
425.919  3.24000000e+02 
424.913  3.25000000e+02 
423.906  3.19000000e+02 
422.900  3.50000000e+02 
421.894  3.52000000e+02 
420.887  3.40000000e+02 
419.881  3.38000000e+02 
418.875  3.58000000e+02 
417.869  3.62000000e+02 
416.863  3.45000000e+02 
415.856  3.16000000e+02 
414.850  3.84000000e+02 
413.844  3.38000000e+02 
412.837  3.56000000e+02 
411.831  3.20000000e+02 
410.825  3.62000000e+02 
409.819  3.38000000e+02 
408.812  3.32000000e+02 
407.806  3.51000000e+02 
406.800  3.12000000e+02 
405.794  3.59000000e+02 
404.787  3.81000000e+02 
403.781  3.60000000e+02 
402.775  3.31000000e+02 
401.769  3.29000000e+02 
400.762  3.69000000e+02 
399.756  3.37000000e+02 
398.750  3.12000000e+02 
397.744  3.40000000e+02 
396.738  3.28000000e+02 
395.731  3.31000000e+02 
394.725  3.16000000e+02 
393.719  3.55000000e+02 
392.712  3.37000000e+02 
391.706  3.28000000e+02 
390.700  3.58000000e+02 
389.694  3.32000000e+02 
388.688  3.33000000e+02 
387.681  3.57000000e+02 
386.675  3.77000000e+02 
385.669  3.53000000e+02 
384.662  3.34000000e+02 
383.656  3.33000000e+02 
382.650  3.24000000e+02 
381.644  3.15000000e+02 
380.637  3.36000000e+02 
379.631  3.67000000e+02 
378.625  3.20000000e+02 
377.619  3.08000000e+02 
376.612  3.29000000e+02 
375.606  3.53000000e+02 
374.600  3.34000000e+02 
373.594  3.37000000e+02 
372.587  3.39000000e+02 
371.581  3.81000000e+02 
370.575  3.33000000e+02 
369.569  3.42000000e+02 
368.562  3.27000000e+02 
367.556  3.29000000e+02 
366.550  3.17000000e+02 
365.544  3.53000000e+02 
364.537  3.54000000e+02 
363.531  3.64000000e+02 
362.525  3.39000000e+02 
361.519  3.28000000e+02 
360.512  3.44000000e+02 
359.506  3.50000000e+02 
358.500  3.26000000e+02 
357.494  3.46000000e+02 
356.487  3.24000000e+02 
355.481  3.39000000e+02 
354.475  3.67000000e+02 
353.469  3.51000000e+02 
352.462  3.30000000e+02 
351.456  3.30000000e+02 
350.450  3.64000000e+02 
349.444  3.64000000e+02 
348.437  3.40000000e+02 
347.431  3.17000000e+02 
346.425  3.29000000e+02 
345.419  3.16000000e+02 
344.412  3.39000000e+02 
343.406  3.33000000e+02 
342.400  3.70000000e+02 
341.394  3.27000000e+02 
340.387  3.12000000e+02 
339.381  3.70000000e+02 
338.375  3.18000000e+02 
337.369  3.39000000e+02 
336.362  3.34000000e+02 
335.356  3.09000000e+02 
334.350  3.41000000e+02 
333.344  3.33000000e+02 
332.337  3.18000000e+02 
331.331  3.30000000e+02 
330.325  3.44000000e+02 
329.319  3.33000000e+02 
328.312  3.77000000e+02 
327.306  3.45000000e+02 
326.300  3.36000000e+02 
325.294  3.31000000e+02 
324.287  3.28000000e+02 
323.281  3.25000000e+02 
322.275  3.30000000e+02 
321.269  3.31000000e+02 
320.262  3.46000000e+02 
319.256  3.53000000e+02 
318.250  3.94000000e+02 
317.244  3.42000000e+02 
316.237  3.72000000e+02 
315.231  3.45000000e+02 
314.225  3.29000000e+02 
313.219  3.17000000e+02 
312.212  3.47000000e+02 
311.206  3.60000000e+02 
310.200  3.37000000e+02 
309.194  3.51000000e+02 
308.187  3.83000000e+02 
307.181  3.17000000e+02 
306.175  3.38000000e+02 
305.169  3.45000000e+02 
304.162  3.79000000e+02 
303.156  3.49000000e+02 
302.150  3.60000000e+02 
301.144  3.30000000e+02 
300.137  3.51000000e+02 
299.131  3.12000000e+02 
298.125  3.58000000e+02 
297.119  3.46000000e+02 
296.112  3.09000000e+02 
295.106  3.49000000e+02 
294.100  3.38000000e+02 
293.094  3.42000000e+02 
292.087  3.23000000e+02 
291.081  3.38000000e+02 
290.075  3.51000000e+02 
289.069  3.61000000e+02 
288.062  3.85000000e+02 
287.056  3.54000000e+02 
286.050  3.83000000e+02 
285.044  3.71000000e+02 
284.037  3.54000000e+02 
283.031  3.58000000e+02 
282.025  3.50000000e+02 
281.019  3.52000000e+02 
280.012  3.62000000e+02 
279.006  3.31000000e+02 
278.000  3.66000000e+02 
276.994  3.50000000e+02 
275.987  3.33000000e+02 
274.981  3.35000000e+02 
273.975  3.43000000e+02 
272.969  3.29000000e+02 
271.962  3.30000000e+02 
270.956  3.27000000e+02 
269.950  3.25000000e+02 
268.944  3.88000000e+02 
267.937  3.37000000e+02 
266.931  3.40000000e+02 
265.925  3.30000000e+02 
264.919  3.43000000e+02 
263.912  3.40000000e+02 
262.906  3.04000000e+02 
261.900  3.29000000e+02 
260.894  3.69000000e+02 
259.887  3.36000000e+02 
258.881  3.22000000e+02 
257.875  3.39000000e+02 
256.869  3.39000000e+02 
255.862  3.41000000e+02 
254.856  3.23000000e+02 
253.850  3.38000000e+02 
252.844  3.69000000e+02 
251.837  3.39000000e+02 
250.831  3.81000000e+02 
249.825  3.68000000e+02 
248.819  3.32000000e+02 
247.812  3.49000000e+02 
246.806  3.41000000e+02 
245.800  3.50000000e+02 
244.794  3.09000000e+02 
243.787  3.50000000e+02 
242.781  3.58000000e+02 
241.775  3.55000000e+02 
240.769  3.45000000e+02 
239.762  3.67000000e+02 
238.756  3.35000000e+02 
237.750  3.77000000e+02 
236.744  3.60000000e+02 
235.737  3.34000000e+02 
234.731  3.32000000e+02 
233.725  3.27000000e+02 
232.719  3.47000000e+02 
231.712  3.81000000e+02 
230.706  3.49000000e+02 
229.700  3.02000000e+02 
228.694  3.64000000e+02 
227.687  3.29000000e+02 
226.681  3.27000000e+02 
225.675  3.35000000e+02 
224.669  3.56000000e+02 
223.662  3.49000000e+02 
222.656  3.49000000e+02 
221.650  3.29000000e+02 
220.644  3.12000000e+02 
219.637  3.39000000e+02 
218.631  3.24000000e+02 
217.625  3.52000000e+02 
216.619  3.28000000e+02 
215.612  3.50000000e+02 
214.606  3.42000000e+02 
213.600  3.26000000e+02 
212.594  3.52000000e+02 
211.587  3.54000000e+02 
210.581  3.50000000e+02 
209.575  3.59000000e+02 
208.569  3.50000000e+02 
207.562  3.51000000e+02 
206.556  3.49000000e+02 
205.550  3.12000000e+02 
204.544  3.34000000e+02 
203.537  3.62000000e+02 
202.531  3.74000000e+02 
201.525  3.33000000e+02 
200.519  3.79000000e+02 
199.512  3.61000000e+02 
198.506  3.49000000e+02 
197.500  3.52000000e+02 
196.494  3.21000000e+02 
195.487  3.46000000e+02 
194.481  3.14000000e+02 
193.475  3.11000000e+02 
192.469  3.53000000e+02 
191.462  3.26000000e+02 
190.456  3.70000000e+02 
189.450  3.33000000e+02 
188.444  3.50000000e+02 
187.437  3.55000000e+02 
186.431  3.33000000e+02 
185.425  3.39000000e+02 
184.419  3.45000000e+02 
183.412  3.55000000e+02 
182.406  3.30000000e+02 
181.400  3.36000000e+02 
180.394  3.62000000e+02 
179.387  3.71000000e+02 
178.381  3.27000000e+02 
177.375  3.39000000e+02 
176.369  3.68000000e+02 
175.362  3.32000000e+02 
174.356  3.63000000e+02 
173.350  3.36000000e+02 
172.344  3.71000000e+02 
171.337  3.47000000e+02 
170.331  3.36000000e+02 
169.325  3.52000000e+02 
168.319  3.35000000e+02 
167.312  3.52000000e+02 
166.306  3.65000000e+02 
165.300  3.29000000e+02 
164.294  3.28000000e+02 
163.287  3.64000000e+02 
162.281  3.50000000e+02 
161.275  3.03000000e+02 
160.269  3.49000000e+02 
159.262  3.50000000e+02 
158.256  3.33000000e+02 
157.250  3.45000000e+02 
156.244  3.59000000e+02 
155.237  3.31000000e+02 
154.231  3.36000000e+02 
153.225  3.35000000e+02 
152.219  3.62000000e+02 
151.212  3.20000000e+02 
150.206  3.13000000e+02 
149.200  3.56000000e+02 
148.194  3.38000000e+02 
147.187  3.06000000e+02 
146.181  3.74000000e+02 
145.175  3.75000000e+02 
144.169  3.26000000e+02 
143.162  3.54000000e+02 
142.156  3.28000000e+02 
141.150  3.30000000e+02 
140.144  3.63000000e+02 
139.137  3.62000000e+02 
138.131  3.33000000e+02 
137.125  3.30000000e+02 
136.119  3.21000000e+02 
135.112  3.21000000e+02 
134.106  3.13000000e+02 
133.100  3.15000000e+02 
132.094  3.28000000e+02 
131.087  3.29000000e+02 
130.081  3.44000000e+02 
129.075  3.12000000e+02 
128.069  2.94000000e+02 
127.062  3.35000000e+02 
126.056  3.31000000e+02 
125.050  3.53000000e+02 
124.044  3.29000000e+02 
123.037  3.09000000e+02 
122.031  3.02000000e+02 
121.025  2.99000000e+02 
120.019  3.46000000e+02 
119.012  3.35000000e+02 
118.006  3.29000000e+02 
117.000  3.21000000e+02 
115.994  3.29000000e+02 
114.987  3.42000000e+02 
113.981  3.48000000e+02 
112.975  3.53000000e+02 
111.969  3.59000000e+02 
110.962  3.58000000e+02 
109.956  3.58000000e+02 
108.950  3.74000000e+02 
107.944  3.15000000e+02 
106.937  3.49000000e+02 
105.931  3.30000000e+02 
104.925  2.78000000e+02 
103.919  3.24000000e+02 
102.912  3.34000000e+02 
101.906  3.22000000e+02 
100.900  3.47000000e+02 
99.894   3.60000000e+02 
98.887   3.39000000e+02 
97.881   3.30000000e+02 
96.875   3.43000000e+02 
95.869   3.31000000e+02 
94.862   3.37000000e+02 
93.856   3.51000000e+02 
92.850   3.81000000e+02 
91.844   3.19000000e+02 
90.837   3.29000000e+02 
89.831   3.39000000e+02 
88.825   4.01000000e+02 
87.819   3.58000000e+02 
86.812   3.26000000e+02 
85.806   3.40000000e+02 
84.800   3.18000000e+02 
83.794   3.38000000e+02 
82.787   3.66000000e+02 
81.781   3.48000000e+02 
80.775   3.33000000e+02 
79.769   3.42000000e+02 
78.762   3.26000000e+02 
77.756   3.52000000e+02 
76.750   3.23000000e+02 
75.744   3.65000000e+02 
74.737   3.39000000e+02 
73.731   3.32000000e+02 
72.725   3.36000000e+02 
71.719   3.30000000e+02 
70.712   3.28000000e+02 
69.706   3.78000000e+02 
68.700   3.29000000e+02 
67.694   3.08000000e+02 
66.687   3.63000000e+02 
65.681   3.38000000e+02 
64.675   3.51000000e+02 
63.669   3.56000000e+02 
62.662   3.59000000e+02 
61.656   3.06000000e+02 
60.650   3.32000000e+02 
59.644   3.45000000e+02 
58.637   3.15000000e+02 
57.631   3.30000000e+02 
56.625   3.40000000e+02 
55.619   3.67000000e+02 
54.612   3.41000000e+02 
53.606   3.16000000e+02 
52.600   3.36000000e+02 
51.594   3.49000000e+02 
50.587   3.24000000e+02 
49.581   3.15000000e+02 
48.575   3.90000000e+02 
47.569   3.58000000e+02 
46.562   3.49000000e+02 
45.556   3.52000000e+02 
44.550   3.13000000e+02 
43.544   3.31000000e+02 
42.537   3.47000000e+02 
41.531   3.31000000e+02 
40.525   3.36000000e+02 
39.519   3.39000000e+02 
38.512   3.57000000e+02 
37.506   3.32000000e+02 
36.500   3.34000000e+02 
35.494   3.13000000e+02 
34.487   3.46000000e+02 
33.481   3.40000000e+02 
32.475   3.52000000e+02 
31.469   3.51000000e+02 
30.462   3.45000000e+02 
29.456   3.41000000e+02 
28.450   3.35000000e+02 
27.444   3.36000000e+02 
26.437   3.51000000e+02 
25.431   3.43000000e+02 
24.425   3.28000000e+02 
23.419   3.09000000e+02 
22.412   3.17000000e+02 
21.406   3.23000000e+02 
20.400   3.55000000e+02 
19.394   3.18000000e+02 
18.387   3.77000000e+02 
17.381   3.49000000e+02 
16.375   3.19000000e+02 
15.369   2.94000000e+02 
14.362   3.31000000e+02 
13.356   3.87000000e+02 
12.350   3.37000000e+02 
11.344   3.22000000e+02 
10.337   3.61000000e+02 
9.331    3.57000000e+02 
8.325    3.35000000e+02 
7.319    3.48000000e+02 
6.312    3.31000000e+02 
5.306    3.36000000e+02 
4.300    3.85000000e+02 
3.294    3.58000000e+02 
2.287    3.43000000e+02 
1.281    3.49000000e+02 
0.275    3.69000000e+02 

